* Measurement data measured by REW V5.40 beta 105
* Source: Microphone (3- USB Audio Device), MICROPHONE (Master Volume), L, volume: 0.250
* Format: 65536-point spectrum using Hann window and no averaging 
* Dated: Nov 14, 2025, 5:27:33 PM
* REW Settings:
*  C-weighting compensation: Off
*  Target level: 75.0 dB
* Note: ; 65536-point spectrum using Hann window and no averaging  Input RMS 68.32 dB 68.1 dB C, 68.3 dB A 68.3 dB 22 - 22k UNW 
* Measurement: Creative Aurvana Ace 2 Ambient
* Smoothing: 1/24 octave
* Frequency Step: 1/48 octave
* Start Frequency: 20.000 Hz
*
* Freq(Hz)	SPL(dB)
20.000000	18.588
20.299999	18.306
20.600000	17.280
20.900000	15.991
21.200001	14.496
21.400000	13.466
21.799999	11.857
22.000000	11.184
22.400000	9.338
22.700001	7.577
23.000000	6.876
23.299999	7.460
23.600000	7.887
24.000000	7.406
24.299999	7.267
24.700001	7.622
25.000000	8.646
25.400000	11.342
25.799999	12.910
26.200001	13.237
26.500000	12.712
26.900000	11.136
27.200001	9.292
27.600000	6.718
28.000000	5.273
28.500000	4.162
29.000000	3.420
29.500000	2.281
30.000000	3.723
30.400000	5.324
30.700001	6.145
31.100000	6.469
31.500000	5.801
32.000000	5.585
32.500000	6.410
33.000000	8.062
33.500000	8.431
34.000000	7.985
34.500000	8.038
35.000000	9.435
35.500000	10.925
36.000000	11.503
36.500000	11.328
37.000000	10.789
37.500000	10.387
38.200001	9.096
38.700001	8.751
39.500000	11.294
40.000000	13.597
40.599998	16.155
41.200001	18.775
41.799999	21.280
42.500000	23.216
43.099998	23.892
43.700001	24.213
44.400002	25.950
45.000000	28.385
45.500000	30.081
46.200001	31.488
46.799999	31.739
47.500000	31.028
48.200001	29.262
48.700001	27.361
49.400002	24.090
50.000000	21.375
50.799999	18.559
51.500000	16.429
52.200001	14.377
53.000000	11.616
53.799999	10.719
54.500000	13.687
55.200001	16.784
56.000000	20.009
57.000000	23.872
58.000000	25.718
59.000000	26.443
60.000000	30.748
60.799999	34.283
61.500000	35.720
62.200001	35.527
63.000000	33.557
64.000000	29.761
65.000000	26.555
66.000000	25.572
67.000000	26.855
68.000000	27.266
69.000000	26.158
70.000000	24.750
71.000000	25.047
72.000000	26.667
73.000000	26.869
74.000000	25.710
75.000000	26.920
76.199997	30.817
77.500000	32.512
78.800003	31.963
80.000000	32.085
81.199997	31.465
82.500000	30.248
83.800003	31.587
85.000000	33.439
86.199997	34.819
87.500000	35.858
88.500000	36.661
90.000000	36.745
91.199997	35.643
92.500000	34.513
93.800003	33.032
95.000000	31.810
96.199997	31.108
97.500000	30.486
98.800003	31.041
100.000000	32.704
101.500000	34.634
103.000000	34.699
104.400002	34.271
106.000000	35.981
107.500000	36.940
109.000000	35.979
110.599998	34.965
112.000000	35.929
113.800003	36.858
115.000000	36.321
117.199997	36.873
118.000000	38.051
120.599998	40.648
122.000000	39.815
124.099998	40.691
125.000000	41.941
126.500000	42.853
128.000000	42.312
131.500000	42.840
132.000000	43.340
134.000000	44.967
136.000000	44.125
138.000000	41.706
140.000000	40.128
143.000000	39.565
145.000000	38.407
147.500000	34.888
150.000000	34.761
152.500000	35.279
155.000000	32.593
157.500000	29.376
160.000000	28.279
162.500000	30.439
165.000000	34.262
167.500000	36.395
170.000000	35.308
172.500000	34.116
175.000000	35.838
177.500000	37.255
180.000000	36.252
182.500000	33.967
185.000000	33.418
187.500000	34.437
190.000000	34.691
192.500000	32.870
195.000000	30.423
197.500000	29.923
200.000000	29.705
203.000000	29.795
206.000000	30.455
209.000000	31.844
212.000000	32.706
214.000000	31.969
218.000000	30.663
220.000000	31.702
224.000000	34.392
227.000000	34.923
230.000000	33.795
233.000000	32.840
236.000000	34.312
240.000000	37.420
243.000000	37.925
247.000000	36.363
250.000000	35.090
254.000000	34.845
258.000000	36.180
262.000000	37.954
265.000000	38.375
269.000000	38.053
272.000000	37.358
276.000000	35.984
280.000000	34.279
285.000000	30.769
290.000000	26.522
295.000000	21.930
300.000000	19.381
304.000000	23.190
307.000000	27.434
311.000000	32.483
315.000000	36.337
320.000000	39.465
325.000000	40.873
330.000000	40.632
335.000000	38.262
340.000000	36.194
345.000000	35.397
350.000000	34.903
355.000000	33.310
360.000000	31.665
365.000000	32.565
370.000000	34.084
375.000000	34.661
382.000000	34.345
387.000000	33.445
395.000000	31.368
400.000000	29.648
406.000000	29.117
412.000000	30.316
418.000000	31.901
425.000000	32.388
431.000000	32.297
437.000000	32.096
444.000000	30.843
450.000000	28.963
455.000000	27.698
462.000000	28.419
468.000000	31.236
475.000000	33.013
482.000000	32.691
487.000000	32.501
494.000000	32.469
500.000000	31.321
508.000000	28.416
515.000000	25.985
522.000000	23.156
530.000000	21.551
538.000000	22.635
545.000000	24.899
552.000000	27.690
560.000000	29.413
570.000000	29.557
580.000000	29.864
590.000000	29.614
600.000000	27.303
608.000000	27.672
615.000000	29.613
622.000000	30.796
630.000000	30.908
640.000000	30.369
650.000000	32.775
660.000000	35.436
670.000000	34.978
680.000000	32.501
690.000000	30.942
700.000000	31.229
710.000000	31.330
720.000000	30.292
730.000000	30.229
740.000000	31.223
750.000000	31.211
762.000000	29.715
775.000000	30.323
788.000000	30.927
800.000000	31.562
812.000000	31.539
825.000000	31.040
838.000000	30.437
850.000000	29.594
862.000000	29.553
875.000000	29.685
885.000000	29.863
900.000000	30.296
912.000000	30.370
925.000000	30.701
938.000000	30.946
950.000000	30.280
962.000000	28.822
975.000000	27.758
988.000000	28.487
1000.000000	29.363
1015.000000	29.987
1030.000000	30.197
1044.000000	29.633
1060.000000	29.244
1075.000000	29.386
1090.000000	29.482
1106.000000	29.507
1120.000000	29.429
1138.000000	30.616
1150.000000	31.554
1172.000000	31.581
1180.000000	31.330
1206.000000	30.438
1220.000000	29.239
1241.000000	27.665
1250.000000	27.823
1265.000000	28.430
1280.000000	28.471
1315.000000	28.847
1320.000000	29.049
1340.000000	29.713
1360.000000	29.930
1380.000000	29.393
1400.000000	28.885
1430.000000	28.061
1450.000000	26.249
1475.000000	23.504
1500.000000	24.284
1525.000000	25.825
1550.000000	26.785
1575.000000	29.839
1600.000000	32.193
1625.000000	32.593
1650.000000	31.025
1675.000000	29.456
1700.000000	28.970
1725.000000	28.070
1750.000000	26.890
1775.000000	26.573
1800.000000	27.555
1825.000000	28.324
1850.000000	28.455
1875.000000	28.444
1900.000000	29.146
1925.000000	29.988
1950.000000	29.399
1975.000000	27.921
2000.000000	28.492
2030.000000	29.939
2060.000000	29.856
2090.000000	30.271
2120.000000	32.228
2140.000000	33.798
2180.000000	37.447
2200.000000	38.796
2240.000000	39.568
2270.000000	39.381
2300.000000	38.681
2330.000000	37.653
2360.000000	37.061
2400.000000	35.739
2430.000000	35.492
2470.000000	35.249
2500.000000	34.254
2540.000000	32.745
2580.000000	30.607
2620.000000	28.348
2650.000000	27.855
2690.000000	29.105
2720.000000	30.932
2760.000000	33.036
2800.000000	33.408
2850.000000	32.428
2900.000000	32.382
2950.000000	32.780
3000.000000	32.869
3040.000000	31.687
3070.000000	30.864
3110.000000	30.288
3150.000000	29.992
3200.000000	31.138
3250.000000	31.767
3300.000000	31.958
3350.000000	31.554
3400.000000	31.412
3450.000000	31.043
3500.000000	29.459
3550.000000	27.659
3600.000000	25.675
3650.000000	23.532
3700.000000	22.567
3750.000000	21.449
3820.000000	20.398
3870.000000	21.656
3950.000000	22.962
4000.000000	24.908
4060.000000	26.988
4120.000000	27.715
4180.000000	27.412
4250.000000	26.040
4310.000000	23.944
4370.000000	21.982
4440.000000	21.053
4500.000000	19.401
4550.000000	17.219
4620.000000	13.715
4680.000000	10.905
4750.000000	8.206
4820.000000	8.272
4870.000000	8.338
4940.000000	7.243
5000.000000	6.736
5080.000000	6.844
5150.000000	6.667
5220.000000	6.351
5300.000000	6.293
5380.000000	5.417
5450.000000	3.806
5520.000000	2.238
5600.000000	0.463
5700.000000	-0.299
5800.000000	1.563
5900.000000	2.685
6000.000000	2.529
6080.000000	2.531
6150.000000	2.875
6220.000000	3.159
6300.000000	3.125
6400.000000	3.273
6500.000000	3.411
6600.000000	4.077
6700.000000	5.809
6800.000000	6.467
6900.000000	5.848
7000.000000	5.746
7100.000000	6.385
7200.000000	6.420
7300.000000	5.999
7400.000000	5.818
7500.000000	5.556
7620.000000	4.998
7750.000000	3.594
7880.000000	1.613
8000.000000	0.113
8120.000000	-1.007
8250.000000	-2.104
8380.000000	-2.557
8500.000000	-2.911
8620.000000	-3.205
8750.000000	-3.549
8850.000000	-3.896
9000.000000	-3.750
9120.000000	-3.725
9250.000000	-3.663
9380.000000	-3.350
9500.000000	-3.472
9620.000000	-3.625
9750.000000	-3.582
9880.000000	-3.764
10000.000000	-3.610
10150.000000	-3.520
10300.000000	-3.604
10440.000000	-3.590
10600.000000	-3.644
10750.000000	-3.526
10900.000000	-3.616
11060.000000	-3.540
11200.000000	-3.649
11380.000000	-3.887
11500.000000	-4.028
11720.000000	-3.936
11800.000000	-3.941
12060.000000	-3.861
12200.000000	-3.788
12410.000000	-3.615
12500.000000	-3.604
12650.000000	-3.598
12800.000000	-3.641
13150.000000	-3.600
13200.000000	-3.553
13400.000000	-2.979
13600.000000	-2.504
13800.000000	-2.784
14000.000000	-3.588
14300.000000	-4.161
14500.000000	-4.109
14750.000000	-3.861
15000.000000	-3.604
15250.000000	-3.493
15500.000000	-3.626
15750.000000	-3.757
16000.000000	-3.817
16250.000000	-3.854
16500.000000	-3.544
16750.000000	-2.937
17000.000000	-2.680
17250.000000	-2.509
17500.000000	-2.073
17750.000000	-1.564
18000.000000	-0.995
18250.000000	-0.375
18500.000000	0.305
18750.000000	0.988
19000.000000	1.654
19250.000000	2.226
19500.000000	2.685
19750.000000	2.997
20000.000000	2.925
