* Measurement data measured by REW V5.40 beta 105
* Source: Microphone (3- USB Audio Device), MICROPHONE (Master Volume), L, volume: 0.250
* Format: 65536-point spectrum using Hann window and no averaging 
* Dated: Nov 14, 2025, 5:27:24 PM
* REW Settings:
*  C-weighting compensation: Off
*  Target level: 75.0 dB
* Note: ; 65536-point spectrum using Hann window and no averaging  Input RMS 54.48 dB 54.1 dB C, 53.1 dB A 54.4 dB 22 - 22k UNW 
* Measurement: Creative Aurvana Ace 2 ANC
* Smoothing: 1/24 octave
* Frequency Step: 1/48 octave
* Start Frequency: 20.000 Hz
*
* Freq(Hz)	SPL(dB)
20.000000	22.513
20.299999	23.582
20.600000	24.875
20.900000	25.784
21.200001	26.109
21.400000	26.028
21.799999	24.986
22.000000	24.045
22.400000	21.191
22.700001	18.224
23.000000	15.356
23.299999	12.488
23.600000	10.278
24.000000	8.324
24.299999	8.958
24.700001	13.922
25.000000	17.182
25.400000	20.057
25.799999	21.532
26.200001	21.610
26.500000	20.842
26.900000	18.620
27.200001	15.303
27.600000	11.168
28.000000	11.217
28.500000	13.480
29.000000	16.294
29.500000	16.903
30.000000	15.855
30.400000	14.073
30.700001	12.135
31.100000	10.375
31.500000	9.896
32.000000	9.089
32.500000	6.216
33.000000	1.988
33.500000	5.269
34.000000	9.404
34.500000	12.399
35.000000	13.142
35.500000	12.253
36.000000	9.896
36.500000	8.308
37.000000	9.455
37.500000	11.783
38.200001	13.615
38.700001	13.738
39.500000	12.313
40.000000	10.356
40.599998	7.744
41.200001	7.530
41.799999	12.073
42.500000	16.076
43.099998	17.440
43.700001	17.072
44.400002	14.493
45.000000	10.588
45.500000	7.850
46.200001	6.975
46.799999	7.627
47.500000	9.420
48.200001	12.468
48.700001	14.376
49.400002	15.635
50.000000	15.669
50.799999	16.298
51.500000	18.598
52.200001	21.142
53.000000	22.972
53.799999	23.454
54.500000	23.498
55.200001	24.237
56.000000	25.336
57.000000	25.317
58.000000	24.112
59.000000	22.887
60.000000	21.067
60.799999	19.122
61.500000	17.786
62.200001	16.751
63.000000	15.651
64.000000	18.019
65.000000	22.062
66.000000	23.336
67.000000	21.613
68.000000	17.440
69.000000	13.556
70.000000	13.488
71.000000	14.662
72.000000	15.013
73.000000	14.493
74.000000	14.289
75.000000	14.847
76.199997	15.074
77.500000	14.152
78.800003	13.369
80.000000	11.980
81.199997	10.194
82.500000	11.798
83.800003	12.900
85.000000	11.451
86.199997	10.311
87.500000	11.714
88.500000	12.979
90.000000	14.778
91.199997	17.008
92.500000	18.925
93.800003	18.880
95.000000	16.929
96.199997	13.821
97.500000	12.126
98.800003	12.242
100.000000	11.712
101.500000	9.885
103.000000	9.364
104.400002	11.395
106.000000	13.664
107.500000	14.978
109.000000	15.957
110.599998	16.129
112.000000	14.919
113.800003	13.039
115.000000	12.690
117.199997	12.370
118.000000	12.649
120.599998	14.007
122.000000	14.223
124.099998	14.572
125.000000	14.702
126.500000	14.741
128.000000	15.615
131.500000	20.149
132.000000	20.253
134.000000	19.241
136.000000	19.410
138.000000	19.833
140.000000	17.588
143.000000	12.157
145.000000	10.610
147.500000	10.579
150.000000	9.876
152.500000	8.255
155.000000	7.159
157.500000	8.188
160.000000	9.712
162.500000	11.525
165.000000	12.059
167.500000	13.243
170.000000	16.710
172.500000	19.058
175.000000	18.405
177.500000	14.955
180.000000	11.952
182.500000	10.462
185.000000	8.472
187.500000	6.054
190.000000	3.740
192.500000	5.269
195.000000	8.769
197.500000	10.660
200.000000	11.317
203.000000	11.930
206.000000	12.072
209.000000	13.749
212.000000	14.648
214.000000	14.667
218.000000	16.351
220.000000	18.205
224.000000	23.345
227.000000	27.050
230.000000	29.799
233.000000	31.683
236.000000	31.933
240.000000	31.390
243.000000	30.913
247.000000	29.489
250.000000	29.149
254.000000	28.530
258.000000	29.334
262.000000	29.507
265.000000	27.937
269.000000	25.869
272.000000	24.296
276.000000	21.500
280.000000	19.263
285.000000	19.956
290.000000	22.130
295.000000	22.038
300.000000	21.525
304.000000	21.086
307.000000	21.139
311.000000	21.924
315.000000	22.531
320.000000	23.389
325.000000	25.156
330.000000	26.110
335.000000	25.197
340.000000	23.025
345.000000	22.829
350.000000	23.131
355.000000	21.618
360.000000	20.446
365.000000	21.129
370.000000	22.249
375.000000	22.495
382.000000	20.581
387.000000	19.364
395.000000	18.011
400.000000	15.785
406.000000	15.985
412.000000	19.483
418.000000	23.190
425.000000	25.549
431.000000	25.446
437.000000	24.666
444.000000	23.160
450.000000	21.796
455.000000	20.159
462.000000	17.585
468.000000	19.572
475.000000	22.658
482.000000	22.712
487.000000	21.907
494.000000	20.231
500.000000	18.340
508.000000	17.210
515.000000	16.839
522.000000	15.381
530.000000	14.115
538.000000	14.417
545.000000	14.691
552.000000	17.071
560.000000	19.155
570.000000	19.347
580.000000	20.738
590.000000	20.796
600.000000	17.814
608.000000	17.116
615.000000	18.728
622.000000	19.452
630.000000	18.933
640.000000	19.124
650.000000	22.196
660.000000	24.477
670.000000	24.935
680.000000	24.155
690.000000	22.366
700.000000	21.949
710.000000	22.291
720.000000	22.233
730.000000	21.960
740.000000	22.353
750.000000	22.231
762.000000	21.514
775.000000	21.749
788.000000	21.754
800.000000	21.818
812.000000	21.667
825.000000	22.291
838.000000	21.795
850.000000	20.756
862.000000	21.789
875.000000	22.796
885.000000	22.714
900.000000	22.419
912.000000	22.525
925.000000	22.464
938.000000	22.042
950.000000	20.629
962.000000	18.214
975.000000	16.988
988.000000	17.261
1000.000000	17.443
1015.000000	18.016
1030.000000	19.291
1044.000000	20.103
1060.000000	19.987
1075.000000	20.503
1090.000000	20.907
1106.000000	20.823
1120.000000	20.918
1138.000000	20.922
1150.000000	20.770
1172.000000	20.700
1180.000000	20.651
1206.000000	20.494
1220.000000	19.893
1241.000000	18.123
1250.000000	18.066
1265.000000	18.210
1280.000000	17.781
1315.000000	17.798
1320.000000	18.036
1340.000000	18.978
1360.000000	19.410
1380.000000	19.009
1400.000000	18.362
1430.000000	16.321
1450.000000	13.961
1475.000000	12.148
1500.000000	12.951
1525.000000	13.095
1550.000000	13.732
1575.000000	16.082
1600.000000	17.772
1625.000000	17.928
1650.000000	17.056
1675.000000	16.194
1700.000000	15.417
1725.000000	14.164
1750.000000	12.138
1775.000000	11.348
1800.000000	12.260
1825.000000	13.228
1850.000000	12.850
1875.000000	11.787
1900.000000	11.911
1925.000000	12.692
1950.000000	12.530
1975.000000	11.077
2000.000000	9.791
2030.000000	9.267
2060.000000	9.284
2090.000000	10.982
2120.000000	13.700
2140.000000	15.297
2180.000000	18.125
2200.000000	19.079
2240.000000	18.786
2270.000000	17.819
2300.000000	17.478
2330.000000	16.581
2360.000000	15.109
2400.000000	13.298
2430.000000	12.629
2470.000000	12.650
2500.000000	12.322
2540.000000	11.541
2580.000000	10.052
2620.000000	7.982
2650.000000	7.211
2690.000000	7.316
2720.000000	8.299
2760.000000	10.070
2800.000000	10.277
2850.000000	9.105
2900.000000	8.591
2950.000000	8.393
3000.000000	7.931
3040.000000	6.628
3070.000000	5.378
3110.000000	4.059
3150.000000	3.520
3200.000000	2.819
3250.000000	1.409
3300.000000	0.859
3350.000000	-0.009
3400.000000	-0.500
3450.000000	0.003
3500.000000	1.309
3550.000000	3.347
3600.000000	5.210
3650.000000	6.802
3700.000000	7.763
3750.000000	7.358
3820.000000	6.365
3870.000000	6.172
3950.000000	7.330
4000.000000	7.606
4060.000000	8.147
4120.000000	8.966
4180.000000	9.667
4250.000000	9.551
4310.000000	10.064
4370.000000	11.587
4440.000000	13.384
4500.000000	13.506
4550.000000	12.669
4620.000000	11.671
4680.000000	12.536
4750.000000	14.825
4820.000000	16.347
4870.000000	16.101
4940.000000	14.666
5000.000000	13.829
5080.000000	13.729
5150.000000	13.211
5220.000000	12.486
5300.000000	11.612
5380.000000	10.369
5450.000000	8.927
5520.000000	7.549
5600.000000	5.369
5700.000000	3.150
5800.000000	3.899
5900.000000	4.501
6000.000000	3.049
6080.000000	2.006
6150.000000	1.903
6220.000000	2.219
6300.000000	2.289
6400.000000	1.943
6500.000000	2.217
6600.000000	3.712
6700.000000	5.907
6800.000000	6.820
6900.000000	6.794
7000.000000	7.662
7100.000000	8.540
7200.000000	9.080
7300.000000	9.476
7400.000000	9.399
7500.000000	8.030
7620.000000	6.193
7750.000000	4.340
7880.000000	2.477
8000.000000	0.362
8120.000000	-1.538
8250.000000	-2.748
8380.000000	-2.681
8500.000000	-3.089
8620.000000	-3.276
8750.000000	-3.225
8850.000000	-3.330
9000.000000	-3.671
9120.000000	-3.700
9250.000000	-3.562
9380.000000	-3.662
9500.000000	-3.937
9620.000000	-3.745
9750.000000	-3.471
9880.000000	-3.711
10000.000000	-3.627
10150.000000	-3.539
10300.000000	-3.548
10440.000000	-3.402
10600.000000	-3.409
10750.000000	-3.600
10900.000000	-4.053
11060.000000	-4.226
11200.000000	-4.296
11380.000000	-3.891
11500.000000	-3.781
11720.000000	-3.724
11800.000000	-3.753
12060.000000	-3.687
12200.000000	-3.795
12410.000000	-3.508
12500.000000	-3.306
12650.000000	-3.082
12800.000000	-2.783
13150.000000	-2.191
13200.000000	-2.386
13400.000000	-3.286
13600.000000	-3.536
13800.000000	-3.416
14000.000000	-3.781
14300.000000	-4.149
14500.000000	-4.146
14750.000000	-4.050
15000.000000	-3.847
15250.000000	-3.858
15500.000000	-4.053
15750.000000	-3.974
16000.000000	-3.906
16250.000000	-3.716
16500.000000	-3.557
16750.000000	-3.245
17000.000000	-2.904
17250.000000	-2.495
17500.000000	-1.901
17750.000000	-1.297
18000.000000	-0.875
18250.000000	-0.404
18500.000000	0.208
18750.000000	1.058
19000.000000	1.845
19250.000000	2.405
19500.000000	2.821
19750.000000	3.004
20000.000000	2.894
