* Measurement data measured by REW V5.40 beta 105
* Source: Microphone (3- USB Audio Device), MICROPHONE (Master Volume), L, volume: 0.250
* Format: 65536-point spectrum using Hann window and no averaging 
* Dated: Nov 14, 2025, 5:18:12 PM
* REW Settings:
*  C-weighting compensation: Off
*  Target level: 75.0 dB
* Note: ; 65536-point spectrum using Hann window and no averaging  Input RMS 48.95 dB 47.6 dB C, 48.0 dB A 48.7 dB 22 - 22k UNW 
* Measurement: Earfun Air Pro 4 Plus ANC
* Smoothing: 1/24 octave
* Frequency Step: 1/48 octave
* Start Frequency: 20.000 Hz
*
* Freq(Hz)	SPL(dB)
20.000000	25.015
20.299999	24.862
20.600000	24.076
20.900000	22.618
21.200001	20.224
21.400000	18.438
21.799999	15.267
22.000000	13.849
22.400000	12.931
22.700001	13.812
23.000000	14.817
23.299999	15.990
23.600000	17.011
24.000000	18.062
24.299999	18.198
24.700001	17.257
25.000000	15.883
25.400000	13.015
25.799999	11.180
26.200001	10.317
26.500000	9.767
26.900000	9.325
27.200001	9.218
27.600000	9.563
28.000000	11.036
28.500000	12.382
29.000000	12.652
29.500000	12.159
30.000000	11.824
30.400000	11.802
30.700001	12.023
31.100000	12.283
31.500000	12.436
32.000000	12.021
32.500000	10.760
33.000000	8.624
33.500000	5.802
34.000000	4.557
34.500000	4.922
35.000000	6.415
35.500000	7.403
36.000000	7.822
36.500000	7.637
37.000000	6.855
37.500000	5.340
38.200001	3.874
38.700001	5.423
39.500000	9.384
40.000000	10.589
40.599998	10.417
41.200001	8.958
41.799999	7.294
42.500000	6.669
43.099998	6.650
43.700001	6.973
44.400002	7.958
45.000000	8.626
45.500000	8.878
46.200001	8.759
46.799999	8.088
47.500000	6.601
48.200001	4.687
48.700001	3.656
49.400002	3.988
50.000000	6.079
50.799999	9.187
51.500000	12.012
52.200001	14.891
53.000000	17.158
53.799999	18.196
54.500000	18.993
55.200001	20.120
56.000000	21.255
57.000000	21.893
58.000000	21.900
59.000000	23.603
60.000000	25.491
60.799999	25.453
61.500000	24.695
62.200001	23.887
63.000000	22.910
64.000000	20.991
65.000000	18.107
66.000000	14.865
67.000000	15.717
68.000000	18.739
69.000000	20.049
70.000000	19.220
71.000000	18.005
72.000000	19.164
73.000000	21.520
74.000000	23.569
75.000000	23.873
76.199997	20.917
77.500000	15.325
78.800003	17.419
80.000000	21.052
81.199997	22.052
82.500000	19.496
83.800003	14.164
85.000000	11.873
86.199997	15.467
87.500000	19.292
88.500000	20.303
90.000000	18.814
91.199997	16.341
92.500000	13.401
93.800003	10.168
95.000000	7.828
96.199997	6.724
97.500000	7.191
98.800003	8.496
100.000000	10.513
101.500000	13.396
103.000000	14.680
104.400002	14.879
106.000000	14.768
107.500000	13.858
109.000000	12.903
110.599998	11.880
112.000000	10.132
113.800003	7.338
115.000000	7.116
117.199997	11.140
118.000000	11.941
120.599998	13.447
122.000000	15.313
124.099998	17.249
125.000000	17.889
126.500000	18.757
128.000000	19.214
131.500000	18.823
132.000000	18.230
134.000000	14.049
136.000000	9.772
138.000000	9.753
140.000000	11.268
143.000000	14.195
145.000000	14.408
147.500000	10.630
150.000000	5.512
152.500000	4.012
155.000000	3.794
157.500000	4.535
160.000000	4.614
162.500000	3.860
165.000000	2.557
167.500000	1.812
170.000000	1.966
172.500000	1.763
175.000000	2.392
177.500000	5.011
180.000000	8.196
182.500000	9.872
185.000000	9.950
187.500000	9.117
190.000000	8.831
192.500000	10.209
195.000000	11.442
197.500000	11.054
200.000000	8.979
203.000000	7.344
206.000000	8.556
209.000000	10.186
212.000000	11.922
214.000000	13.657
218.000000	17.577
220.000000	18.091
224.000000	17.229
227.000000	17.897
230.000000	18.585
233.000000	20.288
236.000000	22.112
240.000000	22.718
243.000000	22.119
247.000000	19.010
250.000000	16.157
254.000000	15.142
258.000000	14.437
262.000000	12.712
265.000000	12.361
269.000000	11.422
272.000000	8.995
276.000000	5.785
280.000000	7.532
285.000000	10.065
290.000000	10.879
295.000000	11.058
300.000000	10.147
304.000000	9.188
307.000000	8.049
311.000000	6.183
315.000000	4.356
320.000000	3.289
325.000000	3.409
330.000000	4.507
335.000000	5.338
340.000000	4.326
345.000000	2.530
350.000000	1.142
355.000000	-0.620
360.000000	-1.527
365.000000	-0.984
370.000000	-0.393
375.000000	-0.226
382.000000	1.672
387.000000	2.659
395.000000	3.401
400.000000	4.555
406.000000	7.524
412.000000	10.087
418.000000	11.589
425.000000	12.541
431.000000	12.207
437.000000	12.429
444.000000	13.125
450.000000	13.272
455.000000	12.710
462.000000	11.063
468.000000	9.541
475.000000	7.356
482.000000	6.367
487.000000	6.981
494.000000	7.754
500.000000	7.903
508.000000	8.335
515.000000	8.687
522.000000	8.023
530.000000	6.332
538.000000	5.322
545.000000	6.690
552.000000	9.699
560.000000	12.052
570.000000	11.980
580.000000	11.179
590.000000	9.808
600.000000	8.246
608.000000	8.689
615.000000	9.664
622.000000	9.711
630.000000	8.985
640.000000	10.240
650.000000	12.938
660.000000	15.330
670.000000	15.694
680.000000	13.912
690.000000	12.720
700.000000	13.284
710.000000	12.118
720.000000	10.159
730.000000	11.275
740.000000	12.082
750.000000	10.787
762.000000	9.538
775.000000	10.743
788.000000	11.877
800.000000	10.786
812.000000	8.232
825.000000	7.451
838.000000	6.583
850.000000	4.906
862.000000	5.259
875.000000	7.031
885.000000	8.000
900.000000	8.480
912.000000	9.027
925.000000	9.702
938.000000	9.045
950.000000	6.880
962.000000	4.053
975.000000	3.763
988.000000	5.250
1000.000000	5.785
1015.000000	6.249
1030.000000	7.763
1044.000000	9.434
1060.000000	10.921
1075.000000	11.355
1090.000000	10.617
1106.000000	10.081
1120.000000	10.508
1138.000000	11.121
1150.000000	11.528
1172.000000	11.333
1180.000000	10.884
1206.000000	9.414
1220.000000	8.367
1241.000000	7.160
1250.000000	7.078
1265.000000	7.220
1280.000000	7.478
1315.000000	7.662
1320.000000	7.605
1340.000000	7.261
1360.000000	6.722
1380.000000	6.166
1400.000000	6.666
1430.000000	6.365
1450.000000	6.110
1475.000000	6.006
1500.000000	6.877
1525.000000	7.108
1550.000000	8.077
1575.000000	9.680
1600.000000	10.855
1625.000000	11.365
1650.000000	11.215
1675.000000	10.518
1700.000000	9.080
1725.000000	7.697
1750.000000	7.521
1775.000000	7.276
1800.000000	7.319
1825.000000	7.991
1850.000000	7.646
1875.000000	6.295
1900.000000	6.175
1925.000000	6.602
1950.000000	5.808
1975.000000	3.804
2000.000000	2.215
2030.000000	2.184
2060.000000	3.036
2090.000000	5.167
2120.000000	7.693
2140.000000	9.048
2180.000000	10.557
2200.000000	10.587
2240.000000	9.914
2270.000000	9.036
2300.000000	8.418
2330.000000	8.712
2360.000000	9.331
2400.000000	11.395
2430.000000	12.451
2470.000000	12.285
2500.000000	11.697
2540.000000	10.230
2580.000000	8.861
2620.000000	10.202
2650.000000	11.134
2690.000000	12.704
2720.000000	13.749
2760.000000	14.572
2800.000000	15.251
2850.000000	15.689
2900.000000	15.138
2950.000000	15.319
3000.000000	16.054
3040.000000	15.630
3070.000000	14.728
3110.000000	13.187
3150.000000	11.848
3200.000000	11.005
3250.000000	10.179
3300.000000	9.737
3350.000000	8.836
3400.000000	6.668
3450.000000	3.648
3500.000000	2.427
3550.000000	3.681
3600.000000	5.296
3650.000000	6.486
3700.000000	6.606
3750.000000	5.284
3820.000000	3.524
3870.000000	2.889
3950.000000	2.653
4000.000000	2.760
4060.000000	2.313
4120.000000	2.353
4180.000000	3.282
4250.000000	3.072
4310.000000	2.482
4370.000000	3.152
4440.000000	5.928
4500.000000	8.715
4550.000000	10.550
4620.000000	12.150
4680.000000	12.460
4750.000000	11.930
4820.000000	10.537
4870.000000	8.644
4940.000000	6.494
5000.000000	5.960
5080.000000	4.690
5150.000000	2.384
5220.000000	0.906
5300.000000	0.697
5380.000000	0.224
5450.000000	-0.307
5520.000000	-0.305
5600.000000	0.037
5700.000000	0.317
5800.000000	1.098
5900.000000	1.728
6000.000000	1.070
6080.000000	0.964
6150.000000	1.586
6220.000000	2.372
6300.000000	2.471
6400.000000	1.693
6500.000000	0.822
6600.000000	0.995
6700.000000	3.230
6800.000000	5.365
6900.000000	6.907
7000.000000	7.435
7100.000000	6.901
7200.000000	6.125
7300.000000	5.645
7400.000000	5.138
7500.000000	4.519
7620.000000	3.733
7750.000000	2.215
7880.000000	1.430
8000.000000	1.164
8120.000000	0.314
8250.000000	-1.171
8380.000000	-2.544
8500.000000	-3.505
8620.000000	-3.709
8750.000000	-3.517
8850.000000	-3.612
9000.000000	-3.281
9120.000000	-2.988
9250.000000	-2.983
9380.000000	-2.860
9500.000000	-2.817
9620.000000	-2.652
9750.000000	-2.490
9880.000000	-2.419
10000.000000	-2.227
10150.000000	-2.075
10300.000000	-1.896
10440.000000	-1.874
10600.000000	-1.677
10750.000000	-1.005
10900.000000	0.049
11060.000000	1.328
11200.000000	2.025
11380.000000	1.653
11500.000000	0.696
11720.000000	-0.964
11800.000000	-1.398
12060.000000	-2.280
12200.000000	-2.691
12410.000000	-3.123
12500.000000	-3.265
12650.000000	-3.346
12800.000000	-3.394
13150.000000	-3.585
13200.000000	-3.614
13400.000000	-3.734
13600.000000	-4.158
13800.000000	-4.303
14000.000000	-4.147
14300.000000	-3.949
14500.000000	-4.074
14750.000000	-3.648
15000.000000	-2.384
15250.000000	-1.159
15500.000000	-0.296
15750.000000	-1.020
16000.000000	-2.258
16250.000000	-3.287
16500.000000	-3.524
16750.000000	-3.283
17000.000000	-3.075
17250.000000	-2.693
17500.000000	-2.234
17750.000000	-1.706
18000.000000	-1.203
18250.000000	-0.544
18500.000000	0.251
18750.000000	0.883
19000.000000	1.538
19250.000000	2.080
19500.000000	2.535
19750.000000	2.835
20000.000000	2.848
