* Measurement data measured by REW V5.40 beta 105
* Source: Microphone (3- USB Audio Device), MICROPHONE (Master Volume), L, volume: 0.250
* Format: 65536-point spectrum using Hann window and no averaging 
* Dated: Nov 14, 2025, 5:34:08 PM
* REW Settings:
*  C-weighting compensation: Off
*  Target level: 75.0 dB
* Note: ; 65536-point spectrum using Hann window and no averaging  Input RMS 47.70 dB 45.5 dB C, 46.3 dB A 47.4 dB 22 - 22k UNW 
* Measurement: Huawei Freebuds Pro 4 ANC
* Smoothing: 1/24 octave
* Frequency Step: 1/48 octave
* Start Frequency: 20.000 Hz
*
* Freq(Hz)	SPL(dB)
20.000000	13.789
20.299999	13.901
20.600000	14.178
20.900000	14.099
21.200001	13.346
21.400000	12.675
21.799999	11.322
22.000000	10.610
22.400000	9.423
22.700001	8.730
23.000000	8.699
23.299999	9.429
23.600000	10.291
24.000000	11.597
24.299999	11.958
24.700001	11.049
25.000000	10.415
25.400000	9.816
25.799999	10.450
26.200001	11.881
26.500000	12.018
26.900000	11.430
27.200001	10.307
27.600000	8.852
28.000000	9.042
28.500000	9.884
29.000000	10.603
29.500000	10.173
30.000000	9.375
30.400000	8.570
30.700001	7.863
31.100000	7.198
31.500000	6.936
32.000000	8.501
32.500000	10.512
33.000000	11.665
33.500000	11.355
34.000000	9.690
34.500000	7.282
35.000000	4.979
35.500000	4.599
36.000000	4.928
36.500000	5.274
37.000000	5.099
37.500000	4.469
38.200001	3.483
38.700001	2.898
39.500000	1.799
40.000000	0.941
40.599998	0.224
41.200001	0.351
41.799999	1.158
42.500000	1.939
43.099998	2.115
43.700001	1.689
44.400002	0.715
45.000000	0.993
45.500000	2.538
46.200001	5.047
46.799999	6.479
47.500000	7.049
48.200001	6.954
48.700001	7.233
49.400002	8.541
50.000000	9.921
50.799999	11.083
51.500000	11.545
52.200001	11.606
53.000000	10.916
53.799999	10.837
54.500000	13.379
55.200001	16.520
56.000000	19.297
57.000000	21.782
58.000000	23.360
59.000000	23.179
60.000000	20.086
60.799999	15.435
61.500000	12.177
62.200001	12.045
63.000000	12.868
64.000000	12.044
65.000000	10.252
66.000000	10.123
67.000000	12.065
68.000000	14.018
69.000000	14.266
70.000000	13.697
71.000000	14.563
72.000000	15.314
73.000000	14.183
74.000000	12.418
75.000000	13.376
76.199997	17.851
77.500000	22.101
78.800003	23.397
80.000000	21.391
81.199997	17.176
82.500000	15.279
83.800003	15.815
85.000000	16.184
86.199997	17.623
87.500000	20.712
88.500000	22.294
90.000000	21.424
91.199997	18.446
92.500000	15.792
93.800003	14.952
95.000000	14.449
96.199997	14.149
97.500000	13.455
98.800003	11.764
100.000000	10.075
101.500000	9.338
103.000000	8.537
104.400002	6.866
106.000000	6.426
107.500000	7.140
109.000000	7.910
110.599998	8.260
112.000000	8.578
113.800003	11.226
115.000000	13.036
117.199997	14.285
118.000000	14.493
120.599998	16.797
122.000000	17.388
124.099998	16.867
125.000000	16.546
126.500000	15.476
128.000000	12.999
131.500000	12.059
132.000000	12.830
134.000000	14.512
136.000000	13.363
138.000000	10.421
140.000000	6.411
143.000000	3.750
145.000000	4.947
147.500000	5.003
150.000000	3.665
152.500000	2.361
155.000000	1.615
157.500000	1.169
160.000000	-1.192
162.500000	-2.491
165.000000	-0.355
167.500000	0.288
170.000000	0.737
172.500000	2.501
175.000000	3.140
177.500000	2.358
180.000000	1.755
182.500000	1.922
185.000000	0.565
187.500000	-1.240
190.000000	-1.117
192.500000	-0.434
195.000000	-0.714
197.500000	-1.386
200.000000	-1.474
203.000000	-0.511
206.000000	-0.176
209.000000	-0.605
212.000000	-1.906
214.000000	-2.363
218.000000	-1.599
220.000000	-0.509
224.000000	0.831
227.000000	0.706
230.000000	0.811
233.000000	0.595
236.000000	1.170
240.000000	4.073
243.000000	5.695
247.000000	6.032
250.000000	5.377
254.000000	4.170
258.000000	2.305
262.000000	2.251
265.000000	3.215
269.000000	3.359
272.000000	2.246
276.000000	0.868
280.000000	0.955
285.000000	1.027
290.000000	0.360
295.000000	0.267
300.000000	0.472
304.000000	0.538
307.000000	0.112
311.000000	-0.480
315.000000	0.480
320.000000	2.151
325.000000	2.541
330.000000	3.258
335.000000	3.680
340.000000	2.253
345.000000	0.432
350.000000	0.220
355.000000	-0.273
360.000000	-1.153
365.000000	-1.808
370.000000	-0.589
375.000000	1.497
382.000000	2.876
387.000000	1.920
395.000000	-0.035
400.000000	-0.072
406.000000	-0.041
412.000000	0.286
418.000000	1.543
425.000000	2.990
431.000000	3.423
437.000000	2.626
444.000000	0.317
450.000000	0.145
455.000000	3.934
462.000000	9.805
468.000000	13.017
475.000000	14.642
482.000000	15.052
487.000000	14.884
494.000000	13.732
500.000000	12.238
508.000000	9.664
515.000000	6.444
522.000000	4.221
530.000000	4.902
538.000000	6.279
545.000000	7.871
552.000000	9.950
560.000000	11.290
570.000000	9.653
580.000000	6.048
590.000000	3.129
600.000000	0.737
608.000000	0.315
615.000000	0.473
622.000000	0.201
630.000000	0.213
640.000000	2.099
650.000000	5.602
660.000000	7.117
670.000000	6.798
680.000000	8.012
690.000000	9.591
700.000000	9.568
710.000000	11.462
720.000000	13.832
730.000000	13.962
740.000000	11.974
750.000000	8.309
762.000000	4.505
775.000000	2.493
788.000000	-0.059
800.000000	0.836
812.000000	3.363
825.000000	4.723
838.000000	4.494
850.000000	4.208
862.000000	5.391
875.000000	6.835
885.000000	7.417
900.000000	8.108
912.000000	9.174
925.000000	9.369
938.000000	8.553
950.000000	7.181
962.000000	4.706
975.000000	2.347
988.000000	1.839
1000.000000	2.006
1015.000000	3.452
1030.000000	5.302
1044.000000	5.818
1060.000000	6.541
1075.000000	7.556
1090.000000	8.410
1106.000000	9.797
1120.000000	10.497
1138.000000	11.035
1150.000000	11.896
1172.000000	12.445
1180.000000	12.053
1206.000000	10.326
1220.000000	9.924
1241.000000	9.314
1250.000000	9.011
1265.000000	8.297
1280.000000	7.146
1315.000000	6.967
1320.000000	7.073
1340.000000	7.294
1360.000000	7.492
1380.000000	7.448
1400.000000	7.501
1430.000000	6.580
1450.000000	6.287
1475.000000	6.361
1500.000000	6.766
1525.000000	7.167
1550.000000	7.461
1575.000000	8.480
1600.000000	10.281
1625.000000	11.585
1650.000000	10.980
1675.000000	9.390
1700.000000	8.234
1725.000000	6.650
1750.000000	4.945
1775.000000	4.398
1800.000000	4.801
1825.000000	4.580
1850.000000	4.044
1875.000000	3.756
1900.000000	3.743
1925.000000	3.875
1950.000000	3.609
1975.000000	3.581
2000.000000	4.107
2030.000000	4.112
2060.000000	3.006
2090.000000	2.723
2120.000000	4.132
2140.000000	5.153
2180.000000	6.891
2200.000000	7.522
2240.000000	7.621
2270.000000	6.891
2300.000000	5.907
2330.000000	4.634
2360.000000	3.353
2400.000000	2.821
2430.000000	3.782
2470.000000	5.061
2500.000000	5.514
2540.000000	4.922
2580.000000	3.966
2620.000000	3.652
2650.000000	3.739
2690.000000	4.653
2720.000000	5.570
2760.000000	6.547
2800.000000	7.132
2850.000000	7.341
2900.000000	7.881
2950.000000	9.061
3000.000000	9.384
3040.000000	9.452
3070.000000	9.618
3110.000000	9.638
3150.000000	9.293
3200.000000	10.128
3250.000000	10.527
3300.000000	9.618
3350.000000	9.145
3400.000000	8.532
3450.000000	7.461
3500.000000	6.240
3550.000000	5.516
3600.000000	5.439
3650.000000	6.244
3700.000000	7.424
3750.000000	7.835
3820.000000	7.649
3870.000000	7.617
3950.000000	6.778
4000.000000	7.421
4060.000000	8.431
4120.000000	8.985
4180.000000	8.389
4250.000000	6.813
4310.000000	5.366
4370.000000	3.957
4440.000000	2.265
4500.000000	3.043
4550.000000	4.522
4620.000000	6.736
4680.000000	8.926
4750.000000	10.553
4820.000000	10.376
4870.000000	8.819
4940.000000	6.205
5000.000000	5.084
5080.000000	4.706
5150.000000	4.461
5220.000000	4.264
5300.000000	4.097
5380.000000	3.706
5450.000000	3.000
5520.000000	2.085
5600.000000	0.849
5700.000000	-0.874
5800.000000	-1.048
5900.000000	-0.279
6000.000000	0.250
6080.000000	0.821
6150.000000	1.330
6220.000000	2.196
6300.000000	3.750
6400.000000	5.371
6500.000000	6.000
6600.000000	6.305
6700.000000	6.724
6800.000000	6.764
6900.000000	6.888
7000.000000	7.508
7100.000000	7.814
7200.000000	7.137
7300.000000	6.166
7400.000000	5.642
7500.000000	5.509
7620.000000	5.812
7750.000000	4.721
7880.000000	2.726
8000.000000	1.658
8120.000000	0.820
8250.000000	0.395
8380.000000	-0.201
8500.000000	-1.143
8620.000000	-1.896
8750.000000	-2.438
8850.000000	-2.611
9000.000000	-2.140
9120.000000	-1.984
9250.000000	-2.134
9380.000000	-2.166
9500.000000	-2.341
9620.000000	-2.738
9750.000000	-3.436
9880.000000	-4.020
10000.000000	-3.883
10150.000000	-3.535
10300.000000	-3.599
10440.000000	-3.757
10600.000000	-3.733
10750.000000	-3.482
10900.000000	-3.308
11060.000000	-2.548
11200.000000	-1.840
11380.000000	-1.155
11500.000000	-1.115
11720.000000	-1.087
11800.000000	-1.008
12060.000000	-0.201
12200.000000	0.071
12410.000000	1.088
12500.000000	2.089
12650.000000	4.283
12800.000000	6.115
13150.000000	5.794
13200.000000	5.291
13400.000000	3.151
13600.000000	1.011
13800.000000	-0.881
14000.000000	-2.287
14300.000000	-3.023
14500.000000	-3.386
14750.000000	-3.562
15000.000000	-3.438
15250.000000	-3.354
15500.000000	-3.467
15750.000000	-3.757
16000.000000	-4.015
16250.000000	-3.865
16500.000000	-3.668
16750.000000	-3.226
17000.000000	-2.554
17250.000000	-2.049
17500.000000	-1.734
17750.000000	-1.463
18000.000000	-1.019
18250.000000	-0.427
18500.000000	0.194
18750.000000	0.891
19000.000000	1.564
19250.000000	2.147
19500.000000	2.634
19750.000000	2.949
20000.000000	2.976
