* Measurement data measured by REW V5.40 beta 105
* Source: Microphone (3- USB Audio Device), MICROPHONE (Master Volume), L, volume: 0.250
* Format: 65536-point spectrum using Hann window and no averaging 
* Dated: Nov 14, 2025, 5:40:44 PM
* REW Settings:
*  C-weighting compensation: Off
*  Target level: 75.0 dB
* Note: ; 65536-point spectrum using Hann window and no averaging  Input RMS 53.68 dB 52.8 dB C, 50.4 dB A 53.6 dB 22 - 22k UNW 
* Measurement: Moondrop GA2 ANC
* Smoothing: 1/24 octave
* Frequency Step: 1/48 octave
* Start Frequency: 20.000 Hz
*
* Freq(Hz)	SPL(dB)
20.000000	10.407
20.299999	8.326
20.600000	11.047
20.900000	13.661
21.200001	14.281
21.400000	14.463
21.799999	15.512
22.000000	16.215
22.400000	17.798
22.700001	19.132
23.000000	19.877
23.299999	20.008
23.600000	19.652
24.000000	18.188
24.299999	17.292
24.700001	16.761
25.000000	16.867
25.400000	17.844
25.799999	18.150
26.200001	17.726
26.500000	16.954
26.900000	15.531
27.200001	14.412
27.600000	13.004
28.000000	12.104
28.500000	11.256
29.000000	10.406
29.500000	8.893
30.000000	9.375
30.400000	10.801
30.700001	12.428
31.100000	13.964
31.500000	14.482
32.000000	13.677
32.500000	12.097
33.000000	10.851
33.500000	12.162
34.000000	13.902
34.500000	15.489
35.000000	16.585
35.500000	17.245
36.000000	17.475
36.500000	17.388
37.000000	17.081
37.500000	16.519
38.200001	14.744
38.700001	12.464
39.500000	7.048
40.000000	6.125
40.599998	9.060
41.200001	13.623
41.799999	16.019
42.500000	16.534
43.099998	15.343
43.700001	13.705
44.400002	14.338
45.000000	15.588
45.500000	15.721
46.200001	14.615
46.799999	14.466
47.500000	16.668
48.200001	19.396
48.700001	20.830
49.400002	22.646
50.000000	24.428
50.799999	26.397
51.500000	27.005
52.200001	27.646
53.000000	30.122
53.799999	32.524
54.500000	33.067
55.200001	32.671
56.000000	33.592
57.000000	36.143
58.000000	36.816
59.000000	35.869
60.000000	33.113
60.799999	29.215
61.500000	26.654
62.200001	26.739
63.000000	27.074
64.000000	25.676
65.000000	26.424
66.000000	28.977
67.000000	29.165
68.000000	26.568
69.000000	22.491
70.000000	20.976
71.000000	22.811
72.000000	24.778
73.000000	25.693
74.000000	25.227
75.000000	24.249
76.199997	25.203
77.500000	27.095
78.800003	29.202
80.000000	30.403
81.199997	29.955
82.500000	28.055
83.800003	25.100
85.000000	23.838
86.199997	24.708
87.500000	24.121
88.500000	22.847
90.000000	21.440
91.199997	21.054
92.500000	20.390
93.800003	19.284
95.000000	17.599
96.199997	15.369
97.500000	15.321
98.800003	17.403
100.000000	18.903
101.500000	19.618
103.000000	19.554
104.400002	20.935
106.000000	23.271
107.500000	24.207
109.000000	24.456
110.599998	26.257
112.000000	28.302
113.800003	30.940
115.000000	32.268
117.199997	32.010
118.000000	31.156
120.599998	29.714
122.000000	29.740
124.099998	31.932
125.000000	32.700
126.500000	32.293
128.000000	30.218
131.500000	28.776
132.000000	28.687
134.000000	28.179
136.000000	30.256
138.000000	32.047
140.000000	32.413
143.000000	31.767
145.000000	28.595
147.500000	23.971
150.000000	24.123
152.500000	24.963
155.000000	23.486
157.500000	20.065
160.000000	16.002
162.500000	11.860
165.000000	8.920
167.500000	7.615
170.000000	7.090
172.500000	9.145
175.000000	11.624
177.500000	14.704
180.000000	17.672
182.500000	19.761
185.000000	20.772
187.500000	20.379
190.000000	18.925
192.500000	17.609
195.000000	16.454
197.500000	15.226
200.000000	14.319
203.000000	13.203
206.000000	10.921
209.000000	9.463
212.000000	10.035
214.000000	10.830
218.000000	15.070
220.000000	18.028
224.000000	22.245
227.000000	24.826
230.000000	27.496
233.000000	28.863
236.000000	29.642
240.000000	31.983
243.000000	32.414
247.000000	29.459
250.000000	25.554
254.000000	22.655
258.000000	23.482
262.000000	23.514
265.000000	24.073
269.000000	24.741
272.000000	24.023
276.000000	20.682
280.000000	16.772
285.000000	18.294
290.000000	19.051
295.000000	18.337
300.000000	19.341
304.000000	19.262
307.000000	18.150
311.000000	16.530
315.000000	18.268
320.000000	20.705
325.000000	20.649
330.000000	19.734
335.000000	17.576
340.000000	15.215
345.000000	16.607
350.000000	18.223
355.000000	17.432
360.000000	16.535
365.000000	17.773
370.000000	19.388
375.000000	19.414
382.000000	18.034
387.000000	16.316
395.000000	15.037
400.000000	14.411
406.000000	12.081
412.000000	11.713
418.000000	11.794
425.000000	10.788
431.000000	8.961
437.000000	6.407
444.000000	5.232
450.000000	6.873
455.000000	8.052
462.000000	8.161
468.000000	8.300
475.000000	7.442
482.000000	4.898
487.000000	2.753
494.000000	1.473
500.000000	2.774
508.000000	5.519
515.000000	6.756
522.000000	6.541
530.000000	4.906
538.000000	2.839
545.000000	2.966
552.000000	5.489
560.000000	7.934
570.000000	10.051
580.000000	11.313
590.000000	9.738
600.000000	6.795
608.000000	7.448
615.000000	8.483
622.000000	8.845
630.000000	8.586
640.000000	8.764
650.000000	9.789
660.000000	10.523
670.000000	10.062
680.000000	8.805
690.000000	8.295
700.000000	8.751
710.000000	8.104
720.000000	7.264
730.000000	7.860
740.000000	8.655
750.000000	9.642
762.000000	8.851
775.000000	7.010
788.000000	6.413
800.000000	5.824
812.000000	6.246
825.000000	6.286
838.000000	4.705
850.000000	4.470
862.000000	6.036
875.000000	7.446
885.000000	8.486
900.000000	10.588
912.000000	12.010
925.000000	11.022
938.000000	7.973
950.000000	5.403
962.000000	5.509
975.000000	6.816
988.000000	6.821
1000.000000	7.293
1015.000000	9.169
1030.000000	10.135
1044.000000	10.800
1060.000000	10.913
1075.000000	9.700
1090.000000	8.495
1106.000000	7.979
1120.000000	7.258
1138.000000	6.720
1150.000000	7.790
1172.000000	9.486
1180.000000	9.313
1206.000000	7.436
1220.000000	6.723
1241.000000	6.169
1250.000000	5.832
1265.000000	4.804
1280.000000	3.496
1315.000000	3.670
1320.000000	4.162
1340.000000	6.209
1360.000000	6.698
1380.000000	6.868
1400.000000	6.991
1430.000000	6.260
1450.000000	5.771
1475.000000	4.556
1500.000000	3.480
1525.000000	3.995
1550.000000	5.153
1575.000000	5.865
1600.000000	7.041
1625.000000	7.404
1650.000000	6.554
1675.000000	5.550
1700.000000	4.158
1725.000000	3.315
1750.000000	3.226
1775.000000	2.319
1800.000000	0.895
1825.000000	1.370
1850.000000	2.060
1875.000000	1.193
1900.000000	0.491
1925.000000	1.679
1950.000000	2.280
1975.000000	2.081
2000.000000	2.754
2030.000000	3.857
2060.000000	4.033
2090.000000	4.661
2120.000000	6.081
2140.000000	7.259
2180.000000	10.451
2200.000000	11.836
2240.000000	12.878
2270.000000	13.357
2300.000000	13.542
2330.000000	13.006
2360.000000	12.149
2400.000000	11.988
2430.000000	12.785
2470.000000	12.979
2500.000000	12.775
2540.000000	11.987
2580.000000	10.742
2620.000000	10.167
2650.000000	10.610
2690.000000	11.968
2720.000000	13.084
2760.000000	14.236
2800.000000	14.323
2850.000000	14.083
2900.000000	13.327
2950.000000	14.000
3000.000000	15.700
3040.000000	15.574
3070.000000	14.813
3110.000000	14.189
3150.000000	14.370
3200.000000	14.961
3250.000000	15.573
3300.000000	16.083
3350.000000	16.670
3400.000000	16.333
3450.000000	15.770
3500.000000	14.799
3550.000000	13.538
3600.000000	12.321
3650.000000	11.255
3700.000000	11.028
3750.000000	11.179
3820.000000	11.463
3870.000000	12.481
3950.000000	12.441
4000.000000	12.259
4060.000000	13.984
4120.000000	15.402
4180.000000	15.123
4250.000000	13.864
4310.000000	12.719
4370.000000	11.544
4440.000000	10.539
4500.000000	9.207
4550.000000	7.446
4620.000000	4.767
4680.000000	4.450
4750.000000	6.239
4820.000000	7.000
4870.000000	6.205
4940.000000	4.087
5000.000000	1.933
5080.000000	-0.909
5150.000000	-1.769
5220.000000	-1.795
5300.000000	-1.830
5380.000000	-2.161
5450.000000	-2.249
5520.000000	-2.073
5600.000000	-1.903
5700.000000	-1.538
5800.000000	-1.449
5900.000000	-2.115
6000.000000	-2.085
6080.000000	-2.092
6150.000000	-2.328
6220.000000	-2.273
6300.000000	-1.633
6400.000000	-0.262
6500.000000	0.859
6600.000000	1.502
6700.000000	2.550
6800.000000	4.142
6900.000000	6.123
7000.000000	8.076
7100.000000	9.141
7200.000000	9.473
7300.000000	9.252
7400.000000	9.202
7500.000000	10.599
7620.000000	13.314
7750.000000	14.279
7880.000000	13.358
8000.000000	11.765
8120.000000	9.749
8250.000000	7.888
8380.000000	6.352
8500.000000	4.925
8620.000000	3.440
8750.000000	2.683
8850.000000	2.394
9000.000000	2.512
9120.000000	3.027
9250.000000	3.550
9380.000000	3.631
9500.000000	3.011
9620.000000	2.379
9750.000000	2.132
9880.000000	2.333
10000.000000	2.682
10150.000000	2.871
10300.000000	3.170
10440.000000	3.510
10600.000000	3.834
10750.000000	4.311
10900.000000	4.144
11060.000000	3.172
11200.000000	2.998
11380.000000	4.376
11500.000000	4.886
11720.000000	4.256
11800.000000	3.718
12060.000000	2.939
12200.000000	2.676
12410.000000	2.089
12500.000000	2.058
12650.000000	2.038
12800.000000	1.916
13150.000000	-0.847
13200.000000	-1.487
13400.000000	-3.426
13600.000000	-3.909
13800.000000	-3.552
14000.000000	-3.351
14300.000000	-3.507
14500.000000	-3.286
14750.000000	-3.263
15000.000000	-3.089
15250.000000	-2.730
15500.000000	-3.057
15750.000000	-3.450
16000.000000	-3.681
16250.000000	-3.963
16500.000000	-3.790
16750.000000	-3.461
17000.000000	-2.902
17250.000000	-2.520
17500.000000	-1.942
17750.000000	-1.512
18000.000000	-1.120
18250.000000	-0.605
18500.000000	0.058
18750.000000	0.969
19000.000000	1.666
19250.000000	2.224
19500.000000	2.714
19750.000000	2.851
20000.000000	2.748
