* Measurement data measured by REW V5.40 beta 105
* Source: Microphone (3- USB Audio Device), MICROPHONE (Master Volume), L, volume: 0.250
* Format: 65536-point spectrum using Hann window and no averaging 
* Dated: Nov 14, 2025, 5:38:01 PM
* REW Settings:
*  C-weighting compensation: Off
*  Target level: 75.0 dB
* Note: ; 65536-point spectrum using Hann window and no averaging  Input RMS 66.05 dB 65.7 dB C, 64.7 dB A 66.0 dB 22 - 22k UNW 
* Measurement: OnePlus Buds 4 Ambient
* Smoothing: 1/24 octave
* Frequency Step: 1/48 octave
* Start Frequency: 20.000 Hz
*
* Freq(Hz)	SPL(dB)
20.000000	7.077
20.299999	7.703
20.600000	9.940
20.900000	11.852
21.200001	12.812
21.400000	13.084
21.799999	12.579
22.000000	11.818
22.400000	8.951
22.700001	5.675
23.000000	3.253
23.299999	1.633
23.600000	1.227
24.000000	3.367
24.299999	4.932
24.700001	6.143
25.000000	6.569
25.400000	6.480
25.799999	5.119
26.200001	3.077
26.500000	2.943
26.900000	3.916
27.200001	5.455
27.600000	7.529
28.000000	7.999
28.500000	6.453
29.000000	3.491
29.500000	1.810
30.000000	4.854
30.400000	7.648
30.700001	8.477
31.100000	8.493
31.500000	7.276
32.000000	3.103
32.500000	-2.375
33.000000	-6.172
33.500000	0.130
34.000000	3.867
34.500000	5.138
35.000000	4.979
35.500000	3.290
36.000000	-0.039
36.500000	-2.266
37.000000	-0.918
37.500000	2.213
38.200001	5.367
38.700001	6.542
39.500000	7.547
40.000000	8.080
40.599998	8.488
41.200001	8.281
41.799999	7.491
42.500000	6.797
43.099998	6.579
43.700001	5.693
44.400002	3.068
45.000000	0.661
45.500000	2.630
46.200001	7.730
46.799999	11.171
47.500000	13.254
48.200001	13.861
48.700001	13.961
49.400002	14.435
50.000000	15.316
50.799999	16.041
51.500000	15.494
52.200001	14.530
53.000000	14.283
53.799999	15.562
54.500000	18.217
55.200001	21.080
56.000000	23.754
57.000000	25.826
58.000000	26.363
59.000000	26.457
60.000000	26.193
60.799999	25.598
61.500000	25.025
62.200001	24.238
63.000000	23.239
64.000000	23.409
65.000000	24.144
66.000000	23.651
67.000000	22.349
68.000000	21.209
69.000000	20.515
70.000000	21.126
71.000000	23.624
72.000000	27.178
73.000000	29.899
74.000000	30.762
75.000000	30.277
76.199997	29.040
77.500000	27.883
78.800003	27.614
80.000000	26.449
81.199997	25.420
82.500000	26.463
83.800003	30.097
85.000000	33.081
86.199997	34.110
87.500000	33.889
88.500000	33.516
90.000000	32.953
91.199997	32.504
92.500000	33.467
93.800003	35.119
95.000000	35.626
96.199997	34.990
97.500000	33.504
98.800003	32.760
100.000000	33.007
101.500000	33.820
103.000000	34.267
104.400002	34.737
106.000000	35.220
107.500000	33.970
109.000000	32.843
110.599998	33.915
112.000000	36.505
113.800003	38.821
115.000000	38.651
117.199997	36.864
118.000000	36.639
120.599998	36.803
122.000000	37.995
124.099998	39.612
125.000000	40.264
126.500000	41.945
128.000000	43.891
131.500000	46.396
132.000000	46.437
134.000000	46.230
136.000000	44.315
138.000000	41.653
140.000000	41.136
143.000000	40.220
145.000000	39.639
147.500000	39.446
150.000000	38.623
152.500000	36.367
155.000000	32.803
157.500000	31.087
160.000000	32.637
162.500000	36.418
165.000000	38.524
167.500000	37.723
170.000000	37.113
172.500000	38.661
175.000000	38.173
177.500000	36.962
180.000000	36.400
182.500000	35.570
185.000000	34.234
187.500000	31.898
190.000000	30.338
192.500000	30.120
195.000000	29.318
197.500000	28.644
200.000000	28.058
203.000000	28.025
206.000000	31.777
209.000000	35.124
212.000000	34.750
214.000000	32.847
218.000000	29.989
220.000000	29.882
224.000000	29.889
227.000000	31.585
230.000000	34.777
233.000000	37.199
236.000000	38.228
240.000000	38.468
243.000000	39.494
247.000000	39.756
250.000000	38.461
254.000000	37.047
258.000000	37.424
262.000000	37.466
265.000000	36.511
269.000000	34.950
272.000000	34.472
276.000000	34.241
280.000000	34.799
285.000000	34.750
290.000000	30.866
295.000000	26.411
300.000000	24.315
304.000000	26.481
307.000000	28.979
311.000000	32.262
315.000000	34.954
320.000000	36.713
325.000000	36.986
330.000000	36.367
335.000000	35.421
340.000000	34.160
345.000000	31.995
350.000000	30.071
355.000000	29.470
360.000000	29.577
365.000000	30.109
370.000000	31.678
375.000000	32.558
382.000000	32.161
387.000000	32.196
395.000000	30.574
400.000000	29.059
406.000000	28.543
412.000000	30.362
418.000000	33.207
425.000000	34.760
431.000000	33.948
437.000000	33.262
444.000000	32.075
450.000000	30.170
455.000000	28.590
462.000000	28.489
468.000000	30.553
475.000000	31.575
482.000000	31.891
487.000000	31.954
494.000000	31.069
500.000000	29.436
508.000000	27.129
515.000000	24.272
522.000000	21.854
530.000000	21.982
538.000000	22.127
545.000000	23.101
552.000000	26.436
560.000000	30.001
570.000000	31.633
580.000000	31.370
590.000000	31.125
600.000000	28.705
608.000000	27.918
615.000000	29.773
622.000000	31.375
630.000000	31.366
640.000000	29.399
650.000000	30.062
660.000000	32.874
670.000000	33.369
680.000000	31.401
690.000000	30.297
700.000000	31.422
710.000000	31.736
720.000000	30.052
730.000000	28.632
740.000000	29.023
750.000000	29.219
762.000000	29.225
775.000000	29.830
788.000000	31.264
800.000000	31.984
812.000000	31.473
825.000000	30.636
838.000000	29.631
850.000000	28.772
862.000000	28.990
875.000000	29.272
885.000000	29.813
900.000000	30.709
912.000000	30.662
925.000000	29.873
938.000000	29.381
950.000000	28.525
962.000000	27.259
975.000000	27.023
988.000000	27.902
1000.000000	28.764
1015.000000	29.257
1030.000000	29.218
1044.000000	28.861
1060.000000	28.494
1075.000000	28.188
1090.000000	27.326
1106.000000	26.613
1120.000000	26.424
1138.000000	26.651
1150.000000	27.404
1172.000000	28.673
1180.000000	28.700
1206.000000	28.393
1220.000000	28.403
1241.000000	27.430
1250.000000	26.895
1265.000000	26.078
1280.000000	25.205
1315.000000	24.584
1320.000000	24.773
1340.000000	25.564
1360.000000	25.880
1380.000000	26.076
1400.000000	25.820
1430.000000	24.002
1450.000000	22.747
1475.000000	21.813
1500.000000	23.154
1525.000000	25.257
1550.000000	27.291
1575.000000	29.004
1600.000000	30.540
1625.000000	30.595
1650.000000	29.927
1675.000000	29.887
1700.000000	29.492
1725.000000	28.110
1750.000000	26.268
1775.000000	25.226
1800.000000	25.106
1825.000000	25.954
1850.000000	25.687
1875.000000	24.757
1900.000000	25.828
1925.000000	27.408
1950.000000	27.376
1975.000000	26.680
2000.000000	27.074
2030.000000	27.587
2060.000000	27.085
2090.000000	27.225
2120.000000	28.559
2140.000000	29.789
2180.000000	33.029
2200.000000	33.908
2240.000000	33.493
2270.000000	32.839
2300.000000	32.140
2330.000000	30.975
2360.000000	29.473
2400.000000	28.149
2430.000000	27.940
2470.000000	28.468
2500.000000	28.596
2540.000000	27.598
2580.000000	25.591
2620.000000	24.985
2650.000000	25.486
2690.000000	27.069
2720.000000	28.144
2760.000000	28.636
2800.000000	28.247
2850.000000	28.293
2900.000000	27.282
2950.000000	26.605
3000.000000	26.713
3040.000000	26.409
3070.000000	26.512
3110.000000	26.340
3150.000000	26.347
3200.000000	27.389
3250.000000	27.912
3300.000000	27.148
3350.000000	26.228
3400.000000	25.463
3450.000000	24.693
3500.000000	23.169
3550.000000	21.634
3600.000000	19.505
3650.000000	16.559
3700.000000	15.284
3750.000000	16.416
3820.000000	17.559
3870.000000	18.378
3950.000000	19.628
4000.000000	20.922
4060.000000	22.648
4120.000000	23.768
4180.000000	23.417
4250.000000	21.865
4310.000000	19.746
4370.000000	17.105
4440.000000	14.858
4500.000000	15.253
4550.000000	16.010
4620.000000	17.246
4680.000000	19.311
4750.000000	21.024
4820.000000	20.949
4870.000000	19.915
4940.000000	18.503
5000.000000	18.505
5080.000000	19.907
5150.000000	20.369
5220.000000	19.711
5300.000000	18.986
5380.000000	17.981
5450.000000	16.464
5520.000000	14.507
5600.000000	13.604
5700.000000	13.307
5800.000000	11.167
5900.000000	7.890
6000.000000	6.783
6080.000000	5.871
6150.000000	4.744
6220.000000	5.413
6300.000000	8.201
6400.000000	10.412
6500.000000	11.118
6600.000000	13.740
6700.000000	16.858
6800.000000	18.517
6900.000000	18.581
7000.000000	18.397
7100.000000	18.212
7200.000000	18.077
7300.000000	17.406
7400.000000	16.476
7500.000000	16.846
7620.000000	19.190
7750.000000	21.141
7880.000000	21.847
8000.000000	21.815
8120.000000	20.939
8250.000000	19.376
8380.000000	17.646
8500.000000	16.812
8620.000000	15.385
8750.000000	13.960
8850.000000	13.218
9000.000000	12.819
9120.000000	12.609
9250.000000	12.316
9380.000000	11.947
9500.000000	11.029
9620.000000	10.255
9750.000000	10.087
9880.000000	9.878
10000.000000	9.509
10150.000000	8.911
10300.000000	8.102
10440.000000	7.964
10600.000000	8.106
10750.000000	7.847
10900.000000	7.344
11060.000000	6.670
11200.000000	5.939
11380.000000	5.910
11500.000000	6.314
11720.000000	6.547
11800.000000	6.401
12060.000000	6.271
12200.000000	6.300
12410.000000	7.030
12500.000000	7.473
12650.000000	8.299
12800.000000	9.268
13150.000000	9.359
13200.000000	8.937
13400.000000	6.718
13600.000000	4.529
13800.000000	3.203
14000.000000	2.747
14300.000000	1.905
14500.000000	0.809
14750.000000	-0.856
15000.000000	-1.816
15250.000000	-2.476
15500.000000	-2.422
15750.000000	-2.416
16000.000000	-2.751
16250.000000	-3.285
16500.000000	-3.253
16750.000000	-2.995
17000.000000	-2.653
17250.000000	-2.084
17500.000000	-1.478
17750.000000	-0.930
18000.000000	-0.454
18250.000000	-0.015
18500.000000	0.705
18750.000000	1.644
19000.000000	2.392
19250.000000	2.976
19500.000000	3.408
19750.000000	3.516
20000.000000	3.452
