* Measurement data measured by REW V5.40 beta 105
* Source: Microphone (3- USB Audio Device), MICROPHONE (Master Volume), L, volume: 0.250
* Format: 65536-point spectrum using Hann window and no averaging 
* Dated: Nov 14, 2025, 5:20:38 PM
* REW Settings:
*  C-weighting compensation: Off
*  Target level: 75.0 dB
* Note: ; 65536-point spectrum using Hann window and no averaging  Input RMS 66.21 dB 66.0 dB C, 64.7 dB A 66.2 dB 22 - 22k UNW 
* Measurement: OnePlus Buds Pro 3 Ambient
* Smoothing: 1/24 octave
* Frequency Step: 1/48 octave
* Start Frequency: 20.000 Hz
*
* Freq(Hz)	SPL(dB)
20.000000	8.689
20.299999	8.162
20.600000	6.958
20.900000	5.462
21.200001	3.395
21.400000	2.172
21.799999	1.945
22.000000	2.662
22.400000	4.778
22.700001	6.984
23.000000	8.566
23.299999	9.518
23.600000	9.846
24.000000	9.174
24.299999	8.132
24.700001	5.873
25.000000	4.854
25.400000	4.814
25.799999	5.396
26.200001	6.361
26.500000	6.788
26.900000	7.030
27.200001	6.898
27.600000	6.125
28.000000	4.282
28.500000	0.812
29.000000	-2.598
29.500000	-2.554
30.000000	-1.475
30.400000	-0.213
30.700001	0.896
31.100000	1.783
31.500000	1.813
32.000000	2.134
32.500000	3.955
33.000000	7.378
33.500000	9.291
34.000000	9.700
34.500000	9.266
35.000000	8.753
35.500000	9.168
36.000000	9.226
36.500000	8.224
37.000000	5.757
37.500000	2.319
38.200001	2.113
38.700001	3.077
39.500000	2.885
40.000000	2.218
40.599998	2.840
41.200001	5.542
41.799999	8.244
42.500000	10.661
43.099998	12.292
43.700001	13.187
44.400002	12.825
45.000000	11.317
45.500000	9.668
46.200001	8.423
46.799999	9.595
47.500000	12.296
48.200001	14.047
48.700001	14.312
49.400002	14.278
50.000000	14.245
50.799999	15.023
51.500000	18.156
52.200001	22.158
53.000000	24.619
53.799999	24.432
54.500000	22.885
55.200001	23.286
56.000000	26.871
57.000000	29.536
58.000000	29.502
59.000000	29.777
60.000000	30.481
60.799999	29.468
61.500000	27.401
62.200001	25.931
63.000000	27.181
64.000000	30.068
65.000000	31.581
66.000000	31.817
67.000000	31.473
68.000000	30.899
69.000000	29.976
70.000000	29.499
71.000000	29.374
72.000000	28.693
73.000000	28.122
74.000000	28.175
75.000000	28.054
76.199997	27.902
77.500000	29.101
78.800003	30.868
80.000000	31.447
81.199997	31.434
82.500000	30.579
83.800003	30.485
85.000000	31.501
86.199997	32.340
87.500000	33.068
88.500000	33.106
90.000000	32.659
91.199997	32.901
92.500000	33.969
93.800003	34.464
95.000000	33.806
96.199997	32.536
97.500000	30.890
98.800003	29.616
100.000000	28.686
101.500000	29.428
103.000000	32.451
104.400002	34.388
106.000000	35.036
107.500000	33.944
109.000000	32.550
110.599998	34.028
112.000000	35.338
113.800003	35.295
115.000000	35.431
117.199997	34.896
118.000000	35.032
120.599998	38.800
122.000000	38.934
124.099998	37.130
125.000000	37.416
126.500000	40.019
128.000000	42.749
131.500000	45.144
132.000000	45.365
134.000000	46.942
136.000000	47.158
138.000000	44.793
140.000000	41.804
143.000000	39.078
145.000000	36.535
147.500000	34.221
150.000000	35.258
152.500000	35.658
155.000000	32.998
157.500000	31.092
160.000000	31.004
162.500000	32.074
165.000000	32.261
167.500000	32.699
170.000000	35.937
172.500000	37.584
175.000000	36.987
177.500000	36.602
180.000000	36.065
182.500000	35.220
185.000000	33.445
187.500000	31.661
190.000000	29.619
192.500000	27.867
195.000000	27.939
197.500000	28.751
200.000000	28.644
203.000000	27.303
206.000000	27.364
209.000000	27.663
212.000000	25.940
214.000000	25.363
218.000000	28.013
220.000000	29.463
224.000000	31.024
227.000000	32.529
230.000000	34.527
233.000000	36.337
236.000000	37.129
240.000000	37.271
243.000000	37.125
247.000000	35.881
250.000000	35.441
254.000000	35.740
258.000000	36.983
262.000000	38.983
265.000000	39.201
269.000000	36.914
272.000000	34.316
276.000000	31.998
280.000000	30.896
285.000000	29.970
290.000000	26.521
295.000000	22.747
300.000000	24.865
304.000000	28.898
307.000000	31.301
311.000000	33.247
315.000000	34.719
320.000000	37.199
325.000000	38.894
330.000000	38.621
335.000000	37.147
340.000000	35.681
345.000000	35.004
350.000000	33.930
355.000000	33.127
360.000000	33.124
365.000000	34.315
370.000000	34.748
375.000000	33.635
382.000000	34.284
387.000000	34.838
395.000000	33.289
400.000000	31.296
406.000000	29.607
412.000000	31.174
418.000000	33.281
425.000000	34.084
431.000000	33.936
437.000000	33.167
444.000000	31.691
450.000000	29.834
455.000000	28.457
462.000000	29.018
468.000000	31.312
475.000000	32.774
482.000000	33.124
487.000000	32.543
494.000000	30.499
500.000000	28.442
508.000000	26.095
515.000000	24.152
522.000000	22.967
530.000000	23.580
538.000000	25.358
545.000000	26.891
552.000000	27.903
560.000000	29.073
570.000000	30.957
580.000000	32.385
590.000000	32.054
600.000000	29.452
608.000000	29.604
615.000000	30.986
622.000000	31.437
630.000000	31.139
640.000000	31.900
650.000000	33.919
660.000000	34.562
670.000000	33.639
680.000000	31.998
690.000000	31.426
700.000000	32.519
710.000000	32.900
720.000000	31.756
730.000000	30.978
740.000000	31.283
750.000000	31.295
762.000000	31.348
775.000000	31.600
788.000000	31.875
800.000000	31.768
812.000000	31.228
825.000000	31.476
838.000000	31.536
850.000000	31.023
862.000000	30.854
875.000000	31.442
885.000000	31.730
900.000000	32.662
912.000000	33.135
925.000000	32.320
938.000000	31.496
950.000000	30.163
962.000000	27.919
975.000000	27.076
988.000000	27.693
1000.000000	27.856
1015.000000	28.138
1030.000000	28.857
1044.000000	29.108
1060.000000	28.758
1075.000000	29.096
1090.000000	29.548
1106.000000	29.496
1120.000000	29.094
1138.000000	28.640
1150.000000	28.622
1172.000000	29.105
1180.000000	28.992
1206.000000	27.425
1220.000000	27.429
1241.000000	27.197
1250.000000	26.826
1265.000000	26.034
1280.000000	25.040
1315.000000	24.254
1320.000000	24.212
1340.000000	24.190
1360.000000	25.349
1380.000000	26.209
1400.000000	25.973
1430.000000	25.059
1450.000000	24.618
1475.000000	25.173
1500.000000	26.273
1525.000000	26.307
1550.000000	27.199
1575.000000	29.492
1600.000000	30.973
1625.000000	30.741
1650.000000	29.086
1675.000000	27.810
1700.000000	26.908
1725.000000	25.648
1750.000000	25.085
1775.000000	25.255
1800.000000	25.598
1825.000000	25.824
1850.000000	25.496
1875.000000	25.630
1900.000000	26.417
1925.000000	27.003
1950.000000	26.522
1975.000000	25.097
2000.000000	24.274
2030.000000	25.204
2060.000000	25.880
2090.000000	26.617
2120.000000	28.449
2140.000000	29.782
2180.000000	31.869
2200.000000	32.223
2240.000000	31.784
2270.000000	30.495
2300.000000	28.668
2330.000000	27.177
2360.000000	26.970
2400.000000	28.024
2430.000000	28.789
2470.000000	28.635
2500.000000	28.209
2540.000000	27.086
2580.000000	25.584
2620.000000	25.437
2650.000000	25.855
2690.000000	27.494
2720.000000	28.821
2760.000000	29.723
2800.000000	29.192
2850.000000	29.126
2900.000000	28.823
2950.000000	28.572
3000.000000	28.615
3040.000000	28.217
3070.000000	27.724
3110.000000	26.859
3150.000000	25.759
3200.000000	24.083
3250.000000	22.364
3300.000000	21.458
3350.000000	20.717
3400.000000	19.656
3450.000000	17.192
3500.000000	16.230
3550.000000	18.550
3600.000000	20.901
3650.000000	22.360
3700.000000	22.508
3750.000000	21.254
3820.000000	19.783
3870.000000	19.040
3950.000000	17.488
4000.000000	16.702
4060.000000	15.704
4120.000000	14.642
4180.000000	13.038
4250.000000	11.906
4310.000000	11.410
4370.000000	10.886
4440.000000	12.259
4500.000000	15.084
4550.000000	16.831
4620.000000	18.060
4680.000000	19.013
4750.000000	19.449
4820.000000	19.211
4870.000000	18.031
4940.000000	15.032
5000.000000	14.360
5080.000000	16.711
5150.000000	18.181
5220.000000	18.982
5300.000000	20.378
5380.000000	21.438
5450.000000	21.191
5520.000000	20.202
5600.000000	19.777
5700.000000	20.762
5800.000000	22.335
5900.000000	22.817
6000.000000	22.586
6080.000000	22.655
6150.000000	22.833
6220.000000	22.742
6300.000000	22.410
6400.000000	21.726
6500.000000	20.117
6600.000000	17.629
6700.000000	15.792
6800.000000	16.623
6900.000000	18.453
7000.000000	19.409
7100.000000	18.387
7200.000000	16.636
7300.000000	15.536
7400.000000	14.816
7500.000000	14.773
7620.000000	15.161
7750.000000	15.096
7880.000000	13.877
8000.000000	12.066
8120.000000	11.070
8250.000000	9.393
8380.000000	6.131
8500.000000	3.019
8620.000000	2.348
8750.000000	2.394
8850.000000	1.602
9000.000000	0.074
9120.000000	-0.705
9250.000000	-0.532
9380.000000	-0.744
9500.000000	-1.763
9620.000000	-2.319
9750.000000	-2.424
9880.000000	-2.719
10000.000000	-2.998
10150.000000	-3.470
10300.000000	-3.663
10440.000000	-3.631
10600.000000	-3.579
10750.000000	-3.368
10900.000000	-3.368
11060.000000	-3.466
11200.000000	-3.603
11380.000000	-3.244
11500.000000	-3.453
11720.000000	-3.860
11800.000000	-3.821
12060.000000	-3.329
12200.000000	-3.222
12410.000000	-3.008
12500.000000	-3.060
12650.000000	-3.198
12800.000000	-3.160
13150.000000	-3.148
13200.000000	-3.211
13400.000000	-3.481
13600.000000	-3.992
13800.000000	-4.064
14000.000000	-3.709
14300.000000	-3.708
14500.000000	-3.735
14750.000000	-3.632
15000.000000	-3.846
15250.000000	-3.731
15500.000000	-3.555
15750.000000	-3.603
16000.000000	-3.663
16250.000000	-3.666
16500.000000	-3.563
16750.000000	-3.125
17000.000000	-2.746
17250.000000	-2.362
17500.000000	-1.914
17750.000000	-1.496
18000.000000	-0.837
18250.000000	-0.121
18500.000000	0.475
18750.000000	1.017
19000.000000	1.555
19250.000000	2.065
19500.000000	2.568
19750.000000	2.921
20000.000000	2.834
