* Measurement data measured by REW V5.40 beta 105
* Source: Microphone (3- USB Audio Device), MICROPHONE (Master Volume), L, volume: 0.250
* Format: 65536-point spectrum using Hann window and no averaging 
* Dated: Nov 14, 2025, 5:43:42 PM
* REW Settings:
*  C-weighting compensation: Off
*  Target level: 75.0 dB
* Note: ; 65536-point spectrum using Hann window and no averaging  Input RMS 52.51 dB 51.1 dB C, 51.3 dB A 52.5 dB 22 - 22k UNW 
* Measurement: QCY MeloBuds Pro ANC
* Smoothing: 1/24 octave
* Frequency Step: 1/48 octave
* Start Frequency: 20.000 Hz
*
* Freq(Hz)	SPL(dB)
20.000000	9.787
20.299999	9.550
20.600000	9.403
20.900000	9.328
21.200001	9.378
21.400000	9.417
21.799999	8.787
22.000000	8.085
22.400000	6.272
22.700001	4.571
23.000000	4.075
23.299999	4.990
23.600000	6.018
24.000000	7.150
24.299999	7.613
24.700001	7.394
25.000000	7.327
25.400000	7.523
25.799999	8.269
26.200001	9.321
26.500000	9.598
26.900000	9.350
27.200001	8.357
27.600000	6.631
28.000000	5.094
28.500000	4.841
29.000000	5.974
29.500000	5.847
30.000000	4.066
30.400000	1.973
30.700001	0.069
31.100000	-1.074
31.500000	-0.226
32.000000	1.449
32.500000	2.830
33.000000	3.203
33.500000	2.623
34.000000	2.109
34.500000	2.358
35.000000	3.606
35.500000	4.498
36.000000	4.441
36.500000	3.907
37.000000	3.650
37.500000	5.066
38.200001	7.003
38.700001	7.262
39.500000	5.169
40.000000	2.805
40.599998	0.529
41.200001	-0.141
41.799999	-0.490
42.500000	-0.956
43.099998	0.050
43.700001	1.538
44.400002	2.348
45.000000	3.551
45.500000	5.985
46.200001	9.396
46.799999	11.379
47.500000	13.677
48.200001	16.564
48.700001	18.338
49.400002	19.793
50.000000	20.215
50.799999	20.895
51.500000	23.137
52.200001	25.790
53.000000	26.982
53.799999	25.784
54.500000	24.662
55.200001	26.181
56.000000	28.463
57.000000	30.653
58.000000	33.905
59.000000	36.923
60.000000	38.593
60.799999	38.779
61.500000	37.882
62.200001	35.853
63.000000	32.376
64.000000	28.990
65.000000	28.404
66.000000	27.870
67.000000	27.176
68.000000	25.266
69.000000	21.127
70.000000	15.966
71.000000	12.438
72.000000	11.540
73.000000	12.246
74.000000	12.782
75.000000	13.640
76.199997	15.483
77.500000	17.173
78.800003	18.679
80.000000	20.186
81.199997	21.086
82.500000	20.822
83.800003	19.214
85.000000	17.806
86.199997	17.526
87.500000	16.596
88.500000	15.684
90.000000	13.740
91.199997	11.827
92.500000	11.352
93.800003	10.621
95.000000	8.984
96.199997	8.415
97.500000	9.542
98.800003	9.404
100.000000	7.694
101.500000	7.651
103.000000	10.114
104.400002	11.465
106.000000	11.431
107.500000	10.882
109.000000	11.929
110.599998	12.704
112.000000	13.162
113.800003	13.992
115.000000	13.359
117.199997	12.311
118.000000	13.395
120.599998	17.487
122.000000	18.138
124.099998	17.794
125.000000	18.293
126.500000	19.379
128.000000	19.378
131.500000	18.660
132.000000	18.725
134.000000	18.881
136.000000	19.192
138.000000	18.390
140.000000	16.860
143.000000	21.254
145.000000	22.729
147.500000	20.144
150.000000	14.913
152.500000	11.044
155.000000	8.742
157.500000	7.468
160.000000	5.809
162.500000	3.840
165.000000	5.551
167.500000	7.197
170.000000	7.594
172.500000	7.784
175.000000	7.881
177.500000	7.558
180.000000	8.485
182.500000	9.793
185.000000	9.652
187.500000	8.981
190.000000	9.309
192.500000	10.827
195.000000	11.911
197.500000	10.737
200.000000	7.635
203.000000	6.610
206.000000	9.081
209.000000	10.500
212.000000	12.991
214.000000	15.703
218.000000	19.717
220.000000	20.132
224.000000	19.796
227.000000	19.266
230.000000	17.714
233.000000	17.314
236.000000	19.480
240.000000	20.729
243.000000	18.689
247.000000	13.222
250.000000	8.219
254.000000	4.149
258.000000	4.940
262.000000	7.735
265.000000	9.528
269.000000	9.725
272.000000	10.381
276.000000	12.336
280.000000	11.980
285.000000	10.249
290.000000	9.533
295.000000	8.533
300.000000	6.957
304.000000	6.323
307.000000	6.604
311.000000	7.829
315.000000	8.960
320.000000	9.051
325.000000	9.810
330.000000	11.207
335.000000	10.755
340.000000	8.661
345.000000	7.293
350.000000	5.815
355.000000	3.498
360.000000	1.957
365.000000	1.058
370.000000	1.419
375.000000	3.893
382.000000	8.009
387.000000	9.754
395.000000	9.650
400.000000	8.022
406.000000	7.433
412.000000	10.838
418.000000	12.817
425.000000	12.012
431.000000	11.132
437.000000	10.350
444.000000	8.686
450.000000	7.459
455.000000	7.201
462.000000	8.291
468.000000	10.443
475.000000	11.948
482.000000	12.087
487.000000	12.138
494.000000	11.286
500.000000	10.024
508.000000	9.562
515.000000	8.491
522.000000	6.408
530.000000	5.987
538.000000	7.430
545.000000	9.480
552.000000	12.311
560.000000	14.958
570.000000	16.037
580.000000	15.527
590.000000	14.294
600.000000	11.615
608.000000	11.420
615.000000	12.574
622.000000	12.786
630.000000	11.974
640.000000	12.911
650.000000	15.147
660.000000	15.828
670.000000	15.182
680.000000	14.075
690.000000	12.581
700.000000	12.393
710.000000	12.074
720.000000	9.719
730.000000	8.544
740.000000	8.891
750.000000	8.351
762.000000	9.530
775.000000	10.181
788.000000	7.820
800.000000	5.865
812.000000	9.268
825.000000	13.235
838.000000	14.569
850.000000	13.512
862.000000	12.689
875.000000	12.571
885.000000	12.074
900.000000	11.878
912.000000	12.458
925.000000	12.511
938.000000	11.103
950.000000	8.761
962.000000	6.665
975.000000	6.604
988.000000	6.959
1000.000000	6.078
1015.000000	5.500
1030.000000	7.278
1044.000000	9.151
1060.000000	10.493
1075.000000	10.701
1090.000000	10.274
1106.000000	9.760
1120.000000	9.518
1138.000000	9.769
1150.000000	10.048
1172.000000	10.387
1180.000000	10.472
1206.000000	8.844
1220.000000	7.532
1241.000000	6.416
1250.000000	5.968
1265.000000	5.025
1280.000000	4.211
1315.000000	3.662
1320.000000	3.539
1340.000000	3.883
1360.000000	4.964
1380.000000	6.363
1400.000000	6.718
1430.000000	5.571
1450.000000	5.051
1475.000000	4.580
1500.000000	5.156
1525.000000	4.942
1550.000000	4.849
1575.000000	5.767
1600.000000	7.832
1625.000000	9.028
1650.000000	8.247
1675.000000	6.550
1700.000000	4.945
1725.000000	2.817
1750.000000	1.008
1775.000000	0.384
1800.000000	0.040
1825.000000	-0.180
1850.000000	0.053
1875.000000	0.196
1900.000000	0.291
1925.000000	0.854
1950.000000	0.901
1975.000000	0.517
2000.000000	0.898
2030.000000	1.572
2060.000000	1.800
2090.000000	2.643
2120.000000	4.148
2140.000000	5.216
2180.000000	7.459
2200.000000	8.350
2240.000000	8.710
2270.000000	7.814
2300.000000	6.517
2330.000000	4.892
2360.000000	3.995
2400.000000	4.529
2430.000000	5.813
2470.000000	7.301
2500.000000	7.636
2540.000000	6.344
2580.000000	5.092
2620.000000	5.436
2650.000000	5.990
2690.000000	7.472
2720.000000	9.161
2760.000000	10.807
2800.000000	11.306
2850.000000	11.749
2900.000000	11.858
2950.000000	12.613
3000.000000	13.889
3040.000000	14.009
3070.000000	13.571
3110.000000	12.770
3150.000000	12.775
3200.000000	13.613
3250.000000	13.709
3300.000000	13.565
3350.000000	13.378
3400.000000	12.043
3450.000000	9.957
3500.000000	8.391
3550.000000	7.218
3600.000000	7.259
3650.000000	8.964
3700.000000	11.349
3750.000000	13.132
3820.000000	13.190
3870.000000	12.811
3950.000000	12.866
4000.000000	13.888
4060.000000	14.927
4120.000000	15.212
4180.000000	14.714
4250.000000	13.856
4310.000000	12.172
4370.000000	8.999
4440.000000	5.743
4500.000000	6.136
4550.000000	7.871
4620.000000	10.885
4680.000000	13.876
4750.000000	16.608
4820.000000	17.618
4870.000000	16.975
4940.000000	15.140
5000.000000	14.145
5080.000000	14.387
5150.000000	14.649
5220.000000	14.609
5300.000000	14.662
5380.000000	14.750
5450.000000	14.232
5520.000000	12.961
5600.000000	11.118
5700.000000	9.553
5800.000000	9.298
5900.000000	10.462
6000.000000	10.585
6080.000000	10.317
6150.000000	10.502
6220.000000	10.945
6300.000000	11.728
6400.000000	12.704
6500.000000	13.003
6600.000000	13.000
6700.000000	13.181
6800.000000	13.155
6900.000000	13.187
7000.000000	14.260
7100.000000	15.052
7200.000000	14.974
7300.000000	14.920
7400.000000	15.208
7500.000000	14.826
7620.000000	13.220
7750.000000	10.530
7880.000000	8.053
8000.000000	6.069
8120.000000	3.796
8250.000000	1.352
8380.000000	-0.528
8500.000000	-1.552
8620.000000	-1.987
8750.000000	-2.341
8850.000000	-2.734
9000.000000	-2.881
9120.000000	-3.088
9250.000000	-3.465
9380.000000	-3.417
9500.000000	-3.526
9620.000000	-3.522
9750.000000	-3.439
9880.000000	-3.481
10000.000000	-3.395
10150.000000	-3.174
10300.000000	-3.155
10440.000000	-3.252
10600.000000	-2.945
10750.000000	-2.429
10900.000000	-2.338
11060.000000	-1.782
11200.000000	-1.377
11380.000000	-1.483
11500.000000	-1.481
11720.000000	-1.003
11800.000000	-0.709
12060.000000	-0.011
12200.000000	-0.003
12410.000000	0.210
12500.000000	0.324
12650.000000	0.280
12800.000000	0.342
13150.000000	4.003
13200.000000	4.189
13400.000000	3.225
13600.000000	1.504
13800.000000	0.339
14000.000000	-0.837
14300.000000	-2.252
14500.000000	-2.608
14750.000000	-3.138
15000.000000	-3.301
15250.000000	-3.441
15500.000000	-3.576
15750.000000	-3.902
16000.000000	-3.910
16250.000000	-4.000
16500.000000	-4.151
16750.000000	-3.754
17000.000000	-2.911
17250.000000	-2.182
17500.000000	-1.727
17750.000000	-1.438
18000.000000	-1.089
18250.000000	-0.514
18500.000000	0.081
18750.000000	0.758
19000.000000	1.748
19250.000000	2.522
19500.000000	2.949
19750.000000	3.176
20000.000000	3.122
