* Measurement data measured by REW V5.40 beta 105
* Source: Microphone (3- USB Audio Device), MICROPHONE (Master Volume), L, volume: 0.250
* Format: 65536-point spectrum using Hann window and no averaging 
* Dated: Nov 14, 2025, 4:51:13 PM
* REW Settings:
*  C-weighting compensation: Off
*  Target level: 75.0 dB
* Note: ; 65536-point spectrum using Hann window and no averaging  Input RMS 66.24 dB 66.2 dB C, 63.8 dB A 66.2 dB 22 - 22k UNW 
* Measurement: QCY N70 Ambient
* Smoothing: 1/24 octave
* Frequency Step: 1/48 octave
* Start Frequency: 20.000 Hz
*
* Freq(Hz)	SPL(dB)
20.000000	16.110
20.299999	17.229
20.600000	17.523
20.900000	17.418
21.200001	16.924
21.400000	16.498
21.799999	15.980
22.000000	15.811
22.400000	15.500
22.700001	15.292
23.000000	14.881
23.299999	14.227
23.600000	13.576
24.000000	12.621
24.299999	12.532
24.700001	13.698
25.000000	14.797
25.400000	16.495
25.799999	17.352
26.200001	17.250
26.500000	16.378
26.900000	14.281
27.200001	11.580
27.600000	8.499
28.000000	9.458
28.500000	11.702
29.000000	13.332
29.500000	12.898
30.000000	10.736
30.400000	8.738
30.700001	7.445
31.100000	6.838
31.500000	7.715
32.000000	8.976
32.500000	11.297
33.000000	14.744
33.500000	17.327
34.000000	18.599
34.500000	18.510
35.000000	17.126
35.500000	14.405
36.000000	12.591
36.500000	12.494
37.000000	14.231
37.500000	15.119
38.200001	15.401
38.700001	15.555
39.500000	16.427
40.000000	17.107
40.599998	17.580
41.200001	17.438
41.799999	16.862
42.500000	16.292
43.099998	15.873
43.700001	15.316
44.400002	16.272
45.000000	18.082
45.500000	18.905
46.200001	18.479
46.799999	16.833
47.500000	14.604
48.200001	13.240
48.700001	13.187
49.400002	14.497
50.000000	16.223
50.799999	19.199
51.500000	23.720
52.200001	27.827
53.000000	30.042
53.799999	29.786
54.500000	28.765
55.200001	29.410
56.000000	31.155
57.000000	31.562
58.000000	30.773
59.000000	29.600
60.000000	27.607
60.799999	27.029
61.500000	27.530
62.200001	27.733
63.000000	27.176
64.000000	25.691
65.000000	23.747
66.000000	23.738
67.000000	24.280
68.000000	22.974
69.000000	22.287
70.000000	24.701
71.000000	26.958
72.000000	27.139
73.000000	26.032
74.000000	26.590
75.000000	28.088
76.199997	28.116
77.500000	29.629
78.800003	34.076
80.000000	35.315
81.199997	33.478
82.500000	31.322
83.800003	32.236
85.000000	33.635
86.199997	34.548
87.500000	34.999
88.500000	34.521
90.000000	32.057
91.199997	30.562
92.500000	30.999
93.800003	31.999
95.000000	32.421
96.199997	32.076
97.500000	31.172
98.800003	30.890
100.000000	32.210
101.500000	33.763
103.000000	32.923
104.400002	30.653
106.000000	30.139
107.500000	32.818
109.000000	34.791
110.599998	34.907
112.000000	34.580
113.800003	35.091
115.000000	34.501
117.199997	30.744
118.000000	29.883
120.599998	33.488
122.000000	36.539
124.099998	39.234
125.000000	39.380
126.500000	38.613
128.000000	38.516
131.500000	43.210
132.000000	43.345
134.000000	41.818
136.000000	38.840
138.000000	37.980
140.000000	37.710
143.000000	36.882
145.000000	36.915
147.500000	37.949
150.000000	37.061
152.500000	34.411
155.000000	31.066
157.500000	29.881
160.000000	31.154
162.500000	30.679
165.000000	32.334
167.500000	35.553
170.000000	38.227
172.500000	39.905
175.000000	39.198
177.500000	37.957
180.000000	36.835
182.500000	34.670
185.000000	32.697
187.500000	32.777
190.000000	32.603
192.500000	30.226
195.000000	27.564
197.500000	26.982
200.000000	28.539
203.000000	31.306
206.000000	32.514
209.000000	32.640
212.000000	33.394
214.000000	33.558
218.000000	33.116
220.000000	32.963
224.000000	35.007
227.000000	36.326
230.000000	36.291
233.000000	37.484
236.000000	40.144
240.000000	41.585
243.000000	40.572
247.000000	38.750
250.000000	38.063
254.000000	37.961
258.000000	38.982
262.000000	39.962
265.000000	39.263
269.000000	35.880
272.000000	33.168
276.000000	31.474
280.000000	30.654
285.000000	30.860
290.000000	28.064
295.000000	23.165
300.000000	24.972
304.000000	28.859
307.000000	31.270
311.000000	34.494
315.000000	37.921
320.000000	40.864
325.000000	41.596
330.000000	40.733
335.000000	40.135
340.000000	39.044
345.000000	37.318
350.000000	37.200
355.000000	36.347
360.000000	34.544
365.000000	34.519
370.000000	36.144
375.000000	36.887
382.000000	37.096
387.000000	37.121
395.000000	35.803
400.000000	35.234
406.000000	33.523
412.000000	32.920
418.000000	34.521
425.000000	34.841
431.000000	33.614
437.000000	32.332
444.000000	31.750
450.000000	30.899
455.000000	31.887
462.000000	35.553
468.000000	37.760
475.000000	37.715
482.000000	35.139
487.000000	32.864
494.000000	30.793
500.000000	30.149
508.000000	29.741
515.000000	30.334
522.000000	31.408
530.000000	33.272
538.000000	35.023
545.000000	36.880
552.000000	38.367
560.000000	38.478
570.000000	38.646
580.000000	39.154
590.000000	37.745
600.000000	35.302
608.000000	36.525
615.000000	37.861
622.000000	37.730
630.000000	36.874
640.000000	36.976
650.000000	38.275
660.000000	39.847
670.000000	39.958
680.000000	38.091
690.000000	36.554
700.000000	37.149
710.000000	36.472
720.000000	35.627
730.000000	35.218
740.000000	34.438
750.000000	33.945
762.000000	33.787
775.000000	34.959
788.000000	36.206
800.000000	36.090
812.000000	35.210
825.000000	35.036
838.000000	34.597
850.000000	34.204
862.000000	34.429
875.000000	34.345
885.000000	33.786
900.000000	33.371
912.000000	33.125
925.000000	32.383
938.000000	31.118
950.000000	29.937
962.000000	28.643
975.000000	27.546
988.000000	26.861
1000.000000	26.061
1015.000000	26.440
1030.000000	27.156
1044.000000	26.723
1060.000000	26.696
1075.000000	26.946
1090.000000	27.205
1106.000000	27.425
1120.000000	26.979
1138.000000	26.118
1150.000000	25.983
1172.000000	25.228
1180.000000	24.550
1206.000000	23.985
1220.000000	24.415
1241.000000	24.378
1250.000000	24.334
1265.000000	24.994
1280.000000	26.073
1315.000000	27.238
1320.000000	27.184
1340.000000	27.460
1360.000000	28.255
1380.000000	28.215
1400.000000	28.317
1430.000000	28.534
1450.000000	27.653
1475.000000	27.260
1500.000000	28.240
1525.000000	28.632
1550.000000	28.878
1575.000000	30.140
1600.000000	31.015
1625.000000	30.584
1650.000000	28.746
1675.000000	25.893
1700.000000	23.079
1725.000000	21.841
1750.000000	21.843
1775.000000	21.409
1800.000000	20.592
1825.000000	19.399
1850.000000	18.411
1875.000000	18.190
1900.000000	17.750
1925.000000	17.162
1950.000000	18.119
1975.000000	20.805
2000.000000	23.327
2030.000000	24.520
2060.000000	24.307
2090.000000	24.235
2120.000000	24.469
2140.000000	24.654
2180.000000	24.775
2200.000000	24.452
2240.000000	24.480
2270.000000	25.284
2300.000000	25.577
2330.000000	25.524
2360.000000	25.094
2400.000000	23.809
2430.000000	22.507
2470.000000	19.908
2500.000000	18.549
2540.000000	17.705
2580.000000	16.892
2620.000000	16.701
2650.000000	15.743
2690.000000	14.525
2720.000000	14.406
2760.000000	13.784
2800.000000	11.779
2850.000000	8.794
2900.000000	6.816
2950.000000	6.530
3000.000000	6.786
3040.000000	6.717
3070.000000	6.297
3110.000000	5.574
3150.000000	4.825
3200.000000	3.990
3250.000000	3.880
3300.000000	5.346
3350.000000	6.961
3400.000000	7.323
3450.000000	7.608
3500.000000	8.393
3550.000000	8.905
3600.000000	8.297
3650.000000	6.233
3700.000000	4.767
3750.000000	5.800
3820.000000	7.522
3870.000000	8.477
3950.000000	9.823
4000.000000	10.614
4060.000000	11.834
4120.000000	13.378
4180.000000	14.008
4250.000000	13.836
4310.000000	13.178
4370.000000	12.670
4440.000000	12.502
4500.000000	12.923
4550.000000	13.170
4620.000000	12.757
4680.000000	12.228
4750.000000	12.017
4820.000000	11.789
4870.000000	11.875
4940.000000	11.979
5000.000000	11.645
5080.000000	10.404
5150.000000	8.763
5220.000000	7.536
5300.000000	5.798
5380.000000	4.186
5450.000000	3.869
5520.000000	3.414
5600.000000	4.390
5700.000000	6.171
5800.000000	6.943
5900.000000	6.564
6000.000000	5.698
6080.000000	4.385
6150.000000	2.594
6220.000000	0.662
6300.000000	-0.645
6400.000000	-1.057
6500.000000	-1.323
6600.000000	-0.301
6700.000000	2.681
6800.000000	5.346
6900.000000	7.511
7000.000000	9.413
7100.000000	9.991
7200.000000	9.453
7300.000000	8.330
7400.000000	7.471
7500.000000	7.277
7620.000000	7.386
7750.000000	6.530
7880.000000	4.704
8000.000000	3.537
8120.000000	3.121
8250.000000	2.263
8380.000000	1.007
8500.000000	-0.160
8620.000000	-1.299
8750.000000	-2.046
8850.000000	-2.506
9000.000000	-2.762
9120.000000	-3.038
9250.000000	-3.140
9380.000000	-3.064
9500.000000	-3.260
9620.000000	-3.323
9750.000000	-3.033
9880.000000	-3.013
10000.000000	-3.002
10150.000000	-3.172
10300.000000	-3.393
10440.000000	-3.471
10600.000000	-3.204
10750.000000	-2.685
10900.000000	-2.532
11060.000000	-2.221
11200.000000	-1.974
11380.000000	-1.616
11500.000000	-1.291
11720.000000	-1.085
11800.000000	-1.041
12060.000000	0.254
12200.000000	0.669
12410.000000	0.744
12500.000000	0.713
12650.000000	0.422
12800.000000	0.222
13150.000000	-0.333
13200.000000	-0.587
13400.000000	-1.587
13600.000000	-2.231
13800.000000	-3.099
14000.000000	-3.418
14300.000000	-2.779
14500.000000	-3.176
14750.000000	-3.600
15000.000000	-3.234
15250.000000	-2.825
15500.000000	-2.822
15750.000000	-3.133
16000.000000	-3.376
16250.000000	-3.519
16500.000000	-3.297
16750.000000	-2.851
17000.000000	-2.669
17250.000000	-2.425
17500.000000	-2.019
17750.000000	-1.466
18000.000000	-0.902
18250.000000	-0.363
18500.000000	0.336
18750.000000	1.177
19000.000000	1.780
19250.000000	2.300
19500.000000	2.730
19750.000000	2.864
20000.000000	2.777
