* Measurement data measured by REW V5.40 beta 105
* Source: Microphone (3- USB Audio Device), MICROPHONE (Master Volume), L, volume: 0.250
* Format: 65536-point spectrum using Hann window and no averaging 
* Dated: Nov 14, 2025, 5:32:02 PM
* REW Settings:
*  C-weighting compensation: Off
*  Target level: 75.0 dB
* Note: ; 65536-point spectrum using Hann window and no averaging  Input RMS 47.72 dB 46.3 dB C, 46.4 dB A 47.7 dB 22 - 22k UNW 
* Measurement: Samsung Buds FE ANC
* Smoothing: 1/24 octave
* Frequency Step: 1/48 octave
* Start Frequency: 20.000 Hz
*
* Freq(Hz)	SPL(dB)
20.000000	13.260
20.299999	13.277
20.600000	14.005
20.900000	14.799
21.200001	15.661
21.400000	16.080
21.799999	15.774
22.000000	15.119
22.400000	12.149
22.700001	8.531
23.000000	5.050
23.299999	1.393
23.600000	-0.344
24.000000	2.271
24.299999	4.028
24.700001	4.409
25.000000	4.685
25.400000	5.337
25.799999	5.484
26.200001	5.114
26.500000	4.374
26.900000	3.417
27.200001	3.707
27.600000	4.890
28.000000	6.971
28.500000	8.653
29.000000	8.345
29.500000	5.067
30.000000	8.624
30.400000	13.017
30.700001	15.648
31.100000	17.979
31.500000	18.785
32.000000	18.447
32.500000	17.367
33.000000	16.269
33.500000	15.938
34.000000	15.060
34.500000	13.221
35.000000	10.523
35.500000	8.746
36.000000	8.281
36.500000	8.277
37.000000	7.797
37.500000	6.911
38.200001	5.232
38.700001	3.991
39.500000	1.998
40.000000	2.053
40.599998	4.121
41.200001	7.031
41.799999	8.395
42.500000	7.866
43.099998	6.083
43.700001	6.425
44.400002	10.825
45.000000	13.284
45.500000	13.856
46.200001	12.355
46.799999	8.835
47.500000	5.655
48.200001	7.001
48.700001	8.849
49.400002	10.296
50.000000	10.769
50.799999	11.493
51.500000	13.501
52.200001	15.902
53.000000	17.466
53.799999	17.734
54.500000	17.693
55.200001	17.858
56.000000	17.909
57.000000	17.800
58.000000	17.946
59.000000	16.820
60.000000	14.003
60.799999	12.125
61.500000	11.784
62.200001	12.323
63.000000	12.588
64.000000	11.298
65.000000	11.705
66.000000	14.734
67.000000	16.639
68.000000	16.748
69.000000	15.583
70.000000	14.539
71.000000	13.846
72.000000	13.597
73.000000	15.022
74.000000	16.289
75.000000	16.802
76.199997	18.045
77.500000	19.860
78.800003	20.545
80.000000	19.504
81.199997	16.657
82.500000	14.484
83.800003	15.179
85.000000	14.253
86.199997	11.939
87.500000	11.154
88.500000	10.773
90.000000	11.668
91.199997	13.060
92.500000	12.458
93.800003	10.558
95.000000	10.648
96.199997	12.558
97.500000	13.955
98.800003	13.373
100.000000	11.075
101.500000	7.307
103.000000	4.543
104.400002	3.478
106.000000	4.362
107.500000	7.951
109.000000	10.691
110.599998	11.073
112.000000	9.094
113.800003	4.839
115.000000	2.477
117.199997	1.467
118.000000	2.385
120.599998	2.882
122.000000	2.649
124.099998	3.162
125.000000	2.898
126.500000	2.511
128.000000	3.576
131.500000	8.102
132.000000	8.905
134.000000	12.953
136.000000	16.423
138.000000	18.451
140.000000	19.789
143.000000	20.405
145.000000	19.274
147.500000	16.538
150.000000	15.068
152.500000	12.813
155.000000	9.474
157.500000	7.116
160.000000	5.903
162.500000	7.688
165.000000	10.351
167.500000	12.025
170.000000	13.271
172.500000	12.879
175.000000	10.649
177.500000	9.112
180.000000	9.567
182.500000	10.838
185.000000	11.791
187.500000	11.073
190.000000	9.690
192.500000	10.454
195.000000	12.792
197.500000	13.339
200.000000	11.877
203.000000	10.174
206.000000	9.651
209.000000	9.655
212.000000	11.510
214.000000	13.927
218.000000	18.645
220.000000	20.941
224.000000	22.862
227.000000	20.408
230.000000	15.965
233.000000	13.300
236.000000	12.887
240.000000	11.644
243.000000	9.326
247.000000	6.312
250.000000	6.993
254.000000	9.340
258.000000	11.639
262.000000	12.391
265.000000	11.931
269.000000	9.690
272.000000	7.420
276.000000	5.872
280.000000	7.764
285.000000	12.292
290.000000	15.552
295.000000	16.545
300.000000	15.346
304.000000	13.959
307.000000	12.238
311.000000	9.643
315.000000	9.831
320.000000	12.331
325.000000	13.625
330.000000	13.611
335.000000	11.775
340.000000	7.950
345.000000	3.534
350.000000	0.601
355.000000	-0.569
360.000000	-0.687
365.000000	-0.970
370.000000	-0.797
375.000000	0.317
382.000000	3.783
387.000000	6.041
395.000000	9.635
400.000000	11.391
406.000000	13.553
412.000000	15.979
418.000000	16.767
425.000000	15.136
431.000000	13.926
437.000000	13.773
444.000000	11.740
450.000000	9.460
455.000000	9.160
462.000000	9.698
468.000000	9.264
475.000000	6.622
482.000000	2.660
487.000000	0.919
494.000000	0.358
500.000000	0.110
508.000000	0.631
515.000000	1.543
522.000000	0.756
530.000000	0.018
538.000000	2.687
545.000000	6.413
552.000000	9.493
560.000000	10.902
570.000000	10.191
580.000000	10.326
590.000000	9.595
600.000000	6.999
608.000000	7.570
615.000000	8.929
622.000000	10.014
630.000000	10.630
640.000000	11.221
650.000000	13.428
660.000000	15.985
670.000000	16.744
680.000000	14.502
690.000000	12.129
700.000000	12.900
710.000000	12.384
720.000000	12.426
730.000000	13.852
740.000000	14.161
750.000000	13.430
762.000000	12.696
775.000000	11.330
788.000000	10.759
800.000000	10.421
812.000000	10.050
825.000000	11.597
838.000000	11.460
850.000000	9.729
862.000000	9.120
875.000000	9.947
885.000000	10.803
900.000000	12.059
912.000000	12.658
925.000000	12.372
938.000000	11.421
950.000000	9.471
962.000000	7.599
975.000000	8.355
988.000000	9.330
1000.000000	9.435
1015.000000	9.249
1030.000000	10.019
1044.000000	11.292
1060.000000	12.122
1075.000000	12.150
1090.000000	11.712
1106.000000	11.362
1120.000000	11.644
1138.000000	12.885
1150.000000	13.336
1172.000000	12.543
1180.000000	12.045
1206.000000	11.108
1220.000000	10.762
1241.000000	9.678
1250.000000	9.294
1265.000000	8.923
1280.000000	8.353
1315.000000	6.243
1320.000000	6.175
1340.000000	6.348
1360.000000	6.782
1380.000000	7.621
1400.000000	8.561
1430.000000	7.529
1450.000000	6.290
1475.000000	5.178
1500.000000	6.050
1525.000000	7.194
1550.000000	7.816
1575.000000	10.212
1600.000000	11.822
1625.000000	11.728
1650.000000	11.624
1675.000000	10.476
1700.000000	8.254
1725.000000	7.037
1750.000000	6.548
1775.000000	6.099
1800.000000	5.784
1825.000000	5.824
1850.000000	5.543
1875.000000	5.311
1900.000000	5.717
1925.000000	6.548
1950.000000	6.448
1975.000000	5.028
2000.000000	4.073
2030.000000	4.906
2060.000000	4.731
2090.000000	5.483
2120.000000	7.864
2140.000000	9.144
2180.000000	11.052
2200.000000	11.871
2240.000000	12.059
2270.000000	10.763
2300.000000	9.560
2330.000000	8.473
2360.000000	7.299
2400.000000	7.040
2430.000000	7.926
2470.000000	7.678
2500.000000	6.767
2540.000000	5.270
2580.000000	3.572
2620.000000	3.748
2650.000000	4.485
2690.000000	5.426
2720.000000	6.147
2760.000000	6.686
2800.000000	6.486
2850.000000	6.319
2900.000000	6.360
2950.000000	6.476
3000.000000	6.991
3040.000000	6.842
3070.000000	6.403
3110.000000	5.993
3150.000000	5.792
3200.000000	6.295
3250.000000	6.484
3300.000000	6.049
3350.000000	5.959
3400.000000	5.339
3450.000000	3.846
3500.000000	2.036
3550.000000	0.874
3600.000000	1.218
3650.000000	2.573
3700.000000	3.782
3750.000000	3.975
3820.000000	4.168
3870.000000	4.035
3950.000000	3.157
4000.000000	3.536
4060.000000	4.085
4120.000000	4.058
4180.000000	3.225
4250.000000	2.637
4310.000000	2.350
4370.000000	1.118
4440.000000	-0.288
4500.000000	0.763
4550.000000	2.470
4620.000000	5.156
4680.000000	7.560
4750.000000	9.166
4820.000000	8.909
4870.000000	7.953
4940.000000	7.220
5000.000000	7.575
5080.000000	7.752
5150.000000	7.778
5220.000000	7.387
5300.000000	6.796
5380.000000	5.956
5450.000000	4.539
5520.000000	3.759
5600.000000	4.596
5700.000000	5.635
5800.000000	4.821
5900.000000	4.137
6000.000000	3.534
6080.000000	2.825
6150.000000	3.114
6220.000000	3.918
6300.000000	4.453
6400.000000	4.936
6500.000000	5.071
6600.000000	4.789
6700.000000	5.072
6800.000000	5.034
6900.000000	4.325
7000.000000	4.226
7100.000000	4.194
7200.000000	3.758
7300.000000	3.316
7400.000000	2.507
7500.000000	1.464
7620.000000	1.077
7750.000000	0.745
7880.000000	-0.092
8000.000000	-0.241
8120.000000	-0.489
8250.000000	-1.106
8380.000000	-1.622
8500.000000	-2.381
8620.000000	-2.924
8750.000000	-2.723
8850.000000	-2.610
9000.000000	-2.125
9120.000000	-2.052
9250.000000	-2.185
9380.000000	-2.004
9500.000000	-2.044
9620.000000	-2.263
9750.000000	-2.145
9880.000000	-2.071
10000.000000	-2.217
10150.000000	-2.391
10300.000000	-2.078
10440.000000	-1.484
10600.000000	-0.752
10750.000000	-0.022
10900.000000	1.095
11060.000000	2.540
11200.000000	3.544
11380.000000	4.253
11500.000000	4.536
11720.000000	5.009
11800.000000	5.032
12060.000000	4.831
12200.000000	4.378
12410.000000	2.880
12500.000000	2.014
12650.000000	0.792
12800.000000	-0.040
13150.000000	-1.882
13200.000000	-2.223
13400.000000	-3.271
13600.000000	-3.921
13800.000000	-4.409
14000.000000	-4.470
14300.000000	-3.809
14500.000000	-3.727
14750.000000	-3.692
15000.000000	-3.624
15250.000000	-3.597
15500.000000	-3.696
15750.000000	-4.085
16000.000000	-4.236
16250.000000	-4.061
16500.000000	-3.678
16750.000000	-3.341
17000.000000	-2.859
17250.000000	-2.380
17500.000000	-2.103
17750.000000	-1.942
18000.000000	-1.546
18250.000000	-0.791
18500.000000	0.187
18750.000000	1.086
19000.000000	1.860
19250.000000	2.362
19500.000000	2.629
19750.000000	2.576
20000.000000	2.533
