* Measurement data measured by REW V5.40 beta 105
* Source: Microphone (3- USB Audio Device), MICROPHONE (Master Volume), L, volume: 0.250
* Format: 65536-point spectrum using Hann window and no averaging 
* Dated: Nov 14, 2025, 4:43:07 PM
* REW Settings:
*  C-weighting compensation: Off
*  Target level: 75.0 dB
* Note: ; 65536-point spectrum using Hann window and no averaging  Input RMS 61.84 dB 61.7 dB C, 59.1 dB A 61.8 dB 22 - 22k UNW 
* Measurement: SoundPEATS H3 Ambient
* Smoothing: 1/24 octave
* Frequency Step: 1/48 octave
* Start Frequency: 20.000 Hz
*
* Freq(Hz)	SPL(dB)
20.000000	16.906
20.299999	18.703
20.600000	19.244
20.900000	18.943
21.200001	17.574
21.400000	16.410
21.799999	14.467
22.000000	13.633
22.400000	13.784
22.700001	15.370
23.000000	16.163
23.299999	16.112
23.600000	15.481
24.000000	13.412
24.299999	12.239
24.700001	11.697
25.000000	12.195
25.400000	14.335
25.799999	15.834
26.200001	16.533
26.500000	16.436
26.900000	15.542
27.200001	14.191
27.600000	11.975
28.000000	9.637
28.500000	9.017
29.000000	10.780
29.500000	12.177
30.000000	12.393
30.400000	12.108
30.700001	11.744
31.100000	11.737
31.500000	12.427
32.000000	13.193
32.500000	13.362
33.000000	12.751
33.500000	12.033
34.000000	12.170
34.500000	13.064
35.000000	14.522
35.500000	16.524
36.000000	18.382
36.500000	19.614
37.000000	19.830
37.500000	18.863
38.200001	17.309
38.700001	17.740
39.500000	19.122
40.000000	18.671
40.599998	16.457
41.200001	13.311
41.799999	10.984
42.500000	9.382
43.099998	6.962
43.700001	4.933
44.400002	5.520
45.000000	6.706
45.500000	7.472
46.200001	7.695
46.799999	7.357
47.500000	8.151
48.200001	10.290
48.700001	11.474
49.400002	11.981
50.000000	11.750
50.799999	11.415
51.500000	11.568
52.200001	12.417
53.000000	13.697
53.799999	14.279
54.500000	15.066
55.200001	17.630
56.000000	21.557
57.000000	25.179
58.000000	26.179
59.000000	24.575
60.000000	22.853
60.799999	22.890
61.500000	22.465
62.200001	21.038
63.000000	19.290
64.000000	18.611
65.000000	18.752
66.000000	19.280
67.000000	20.504
68.000000	21.886
69.000000	22.134
70.000000	21.611
71.000000	20.878
72.000000	19.680
73.000000	19.387
74.000000	20.064
75.000000	20.825
76.199997	22.142
77.500000	22.941
78.800003	21.450
80.000000	17.981
81.199997	15.570
82.500000	15.576
83.800003	17.807
85.000000	19.300
86.199997	19.720
87.500000	21.192
88.500000	23.247
90.000000	24.991
91.199997	24.522
92.500000	22.340
93.800003	20.730
95.000000	21.275
96.199997	22.302
97.500000	23.045
98.800003	23.289
100.000000	22.934
101.500000	23.595
103.000000	25.363
104.400002	25.252
106.000000	25.014
107.500000	27.318
109.000000	28.248
110.599998	27.099
112.000000	27.128
113.800003	27.989
115.000000	28.321
117.199997	30.296
118.000000	31.508
120.599998	33.758
122.000000	34.350
124.099998	35.984
125.000000	36.212
126.500000	35.972
128.000000	35.590
131.500000	34.864
132.000000	34.824
134.000000	35.287
136.000000	36.533
138.000000	35.706
140.000000	32.824
143.000000	30.078
145.000000	31.145
147.500000	33.757
150.000000	32.577
152.500000	27.729
155.000000	23.528
157.500000	21.255
160.000000	21.919
162.500000	23.218
165.000000	25.393
167.500000	27.989
170.000000	29.103
172.500000	28.575
175.000000	27.550
177.500000	27.097
180.000000	26.797
182.500000	26.963
185.000000	27.312
187.500000	26.819
190.000000	26.374
192.500000	25.165
195.000000	22.824
197.500000	19.969
200.000000	18.912
203.000000	19.803
206.000000	21.180
209.000000	24.344
212.000000	26.139
214.000000	26.431
218.000000	26.746
220.000000	26.828
224.000000	28.769
227.000000	31.804
230.000000	33.806
233.000000	35.677
236.000000	37.223
240.000000	36.603
243.000000	35.830
247.000000	37.291
250.000000	37.459
254.000000	35.592
258.000000	34.293
262.000000	34.796
265.000000	35.987
269.000000	36.425
272.000000	35.367
276.000000	32.891
280.000000	31.118
285.000000	29.079
290.000000	25.941
295.000000	22.799
300.000000	23.825
304.000000	28.520
307.000000	31.939
311.000000	35.776
315.000000	38.449
320.000000	38.926
325.000000	37.626
330.000000	37.407
335.000000	36.034
340.000000	34.288
345.000000	33.656
350.000000	33.513
355.000000	32.900
360.000000	31.867
365.000000	31.347
370.000000	31.363
375.000000	31.307
382.000000	30.300
387.000000	29.843
395.000000	29.000
400.000000	28.527
406.000000	29.661
412.000000	30.674
418.000000	31.632
425.000000	33.117
431.000000	32.661
437.000000	30.656
444.000000	29.174
450.000000	28.296
455.000000	27.005
462.000000	28.069
468.000000	30.403
475.000000	31.086
482.000000	30.397
487.000000	29.505
494.000000	27.547
500.000000	25.818
508.000000	23.766
515.000000	22.782
522.000000	23.450
530.000000	24.896
538.000000	27.402
545.000000	29.097
552.000000	30.158
560.000000	31.011
570.000000	32.055
580.000000	33.576
590.000000	32.882
600.000000	30.082
608.000000	29.524
615.000000	31.818
622.000000	33.494
630.000000	33.321
640.000000	32.174
650.000000	33.310
660.000000	34.667
670.000000	33.911
680.000000	31.771
690.000000	31.863
700.000000	34.027
710.000000	34.043
720.000000	32.492
730.000000	32.266
740.000000	32.336
750.000000	31.900
762.000000	31.359
775.000000	31.281
788.000000	30.511
800.000000	30.480
812.000000	30.670
825.000000	31.329
838.000000	31.154
850.000000	30.754
862.000000	30.926
875.000000	31.240
885.000000	30.917
900.000000	30.914
912.000000	31.197
925.000000	30.259
938.000000	28.398
950.000000	26.461
962.000000	25.049
975.000000	24.732
988.000000	25.453
1000.000000	26.062
1015.000000	26.315
1030.000000	25.970
1044.000000	25.360
1060.000000	24.814
1075.000000	24.271
1090.000000	23.557
1106.000000	22.679
1120.000000	22.261
1138.000000	21.916
1150.000000	22.161
1172.000000	21.363
1180.000000	20.390
1206.000000	16.698
1220.000000	14.909
1241.000000	13.301
1250.000000	13.564
1265.000000	14.772
1280.000000	15.634
1315.000000	17.450
1320.000000	17.607
1340.000000	17.879
1360.000000	18.238
1380.000000	17.785
1400.000000	17.603
1430.000000	17.611
1450.000000	17.428
1475.000000	17.317
1500.000000	17.847
1525.000000	18.376
1550.000000	18.650
1575.000000	20.026
1600.000000	20.712
1625.000000	19.343
1650.000000	17.560
1675.000000	15.638
1700.000000	13.289
1725.000000	12.108
1750.000000	11.601
1775.000000	11.116
1800.000000	11.557
1825.000000	12.124
1850.000000	11.895
1875.000000	11.350
1900.000000	11.411
1925.000000	11.636
1950.000000	11.099
1975.000000	10.759
2000.000000	11.852
2030.000000	13.330
2060.000000	14.049
2090.000000	14.952
2120.000000	15.722
2140.000000	16.114
2180.000000	17.556
2200.000000	17.837
2240.000000	17.088
2270.000000	17.520
2300.000000	18.579
2330.000000	18.816
2360.000000	18.499
2400.000000	18.711
2430.000000	18.379
2470.000000	17.148
2500.000000	16.508
2540.000000	16.817
2580.000000	17.031
2620.000000	17.735
2650.000000	17.534
2690.000000	16.731
2720.000000	17.102
2760.000000	17.412
2800.000000	16.154
2850.000000	13.815
2900.000000	12.390
2950.000000	12.718
3000.000000	12.426
3040.000000	11.546
3070.000000	10.814
3110.000000	10.642
3150.000000	10.713
3200.000000	10.013
3250.000000	9.082
3300.000000	8.065
3350.000000	8.588
3400.000000	10.237
3450.000000	11.181
3500.000000	11.692
3550.000000	12.527
3600.000000	12.861
3650.000000	12.280
3700.000000	10.666
3750.000000	8.938
3820.000000	7.739
3870.000000	8.638
3950.000000	9.805
4000.000000	10.438
4060.000000	10.937
4120.000000	11.041
4180.000000	10.517
4250.000000	8.450
4310.000000	6.943
4370.000000	5.728
4440.000000	4.221
4500.000000	3.748
4550.000000	3.799
4620.000000	3.219
4680.000000	2.111
4750.000000	1.892
4820.000000	2.781
4870.000000	3.167
4940.000000	3.133
5000.000000	2.183
5080.000000	0.734
5150.000000	0.491
5220.000000	0.855
5300.000000	1.668
5380.000000	2.688
5450.000000	3.268
5520.000000	3.295
5600.000000	3.337
5700.000000	3.879
5800.000000	5.360
5900.000000	5.504
6000.000000	5.284
6080.000000	5.137
6150.000000	4.454
6220.000000	3.372
6300.000000	2.206
6400.000000	1.319
6500.000000	1.752
6600.000000	2.774
6700.000000	3.412
6800.000000	3.088
6900.000000	2.151
7000.000000	1.433
7100.000000	0.129
7200.000000	-1.139
7300.000000	-0.462
7400.000000	0.338
7500.000000	0.223
7620.000000	0.335
7750.000000	-0.149
7880.000000	-1.354
8000.000000	-1.720
8120.000000	-1.568
8250.000000	-1.862
8380.000000	-2.245
8500.000000	-2.958
8620.000000	-3.368
8750.000000	-3.555
8850.000000	-3.465
9000.000000	-3.084
9120.000000	-3.435
9250.000000	-3.815
9380.000000	-3.538
9500.000000	-3.609
9620.000000	-3.786
9750.000000	-3.959
9880.000000	-4.025
10000.000000	-3.858
10150.000000	-4.034
10300.000000	-4.230
10440.000000	-4.330
10600.000000	-4.359
10750.000000	-4.135
10900.000000	-4.216
11060.000000	-4.114
11200.000000	-4.087
11380.000000	-3.916
11500.000000	-3.911
11720.000000	-3.877
11800.000000	-3.815
12060.000000	-3.756
12200.000000	-3.709
12410.000000	-3.217
12500.000000	-2.896
12650.000000	-2.040
12800.000000	-1.250
13150.000000	-0.011
13200.000000	0.385
13400.000000	3.092
13600.000000	6.529
13800.000000	9.161
14000.000000	10.076
14300.000000	10.305
14500.000000	10.548
14750.000000	10.146
15000.000000	9.387
15250.000000	9.180
15500.000000	9.186
15750.000000	7.954
16000.000000	5.437
16250.000000	1.099
16500.000000	-2.796
16750.000000	-3.498
17000.000000	-3.142
17250.000000	-2.743
17500.000000	-2.327
17750.000000	-1.925
18000.000000	-1.583
18250.000000	-0.804
18500.000000	-0.010
18750.000000	0.675
19000.000000	1.403
19250.000000	2.223
19500.000000	2.757
19750.000000	2.804
20000.000000	2.666
