* Measurement data measured by REW V5.40 beta 105
* Source: Microphone (3- USB Audio Device), MICROPHONE (Master Volume), L, volume: 0.250
* Format: 65536-point spectrum using Hann window and no averaging 
* Dated: Nov 14, 2025, 4:45:56 PM
* REW Settings:
*  C-weighting compensation: Off
*  Target level: 75.0 dB
* Note: ; 65536-point spectrum using Hann window and no averaging  Input RMS 49.16 dB 48.0 dB C, 47.3 dB A 49.0 dB 22 - 22k UNW 
* Measurement: SoundPEATS Air5 Pro Plus ANC
* Smoothing: 1/24 octave
* Frequency Step: 1/48 octave
* Start Frequency: 20.000 Hz
*
* Freq(Hz)	SPL(dB)
20.000000	16.733
20.299999	15.538
20.600000	14.580
20.900000	13.792
21.200001	13.250
21.400000	12.946
21.799999	12.236
22.000000	11.860
22.400000	11.051
22.700001	10.396
23.000000	9.675
23.299999	8.792
23.600000	8.367
24.000000	8.532
24.299999	10.145
24.700001	15.259
25.000000	18.563
25.400000	21.592
25.799999	23.284
26.200001	23.638
26.500000	23.134
26.900000	21.175
27.200001	18.762
27.600000	12.939
28.000000	-1.378
28.500000	-4.341
29.000000	6.985
29.500000	6.394
30.000000	6.523
30.400000	6.799
30.700001	6.923
31.100000	7.344
31.500000	8.118
32.000000	9.768
32.500000	11.400
33.000000	12.364
33.500000	12.308
34.000000	10.750
34.500000	8.990
35.000000	8.630
35.500000	12.543
36.000000	15.759
36.500000	17.587
37.000000	18.036
37.500000	17.327
38.200001	14.635
38.700001	12.492
39.500000	11.561
40.000000	12.014
40.599998	12.106
41.200001	11.407
41.799999	11.010
42.500000	12.158
43.099998	12.911
43.700001	12.431
44.400002	11.098
45.000000	10.638
45.500000	10.606
46.200001	10.179
46.799999	9.410
47.500000	9.156
48.200001	10.198
48.700001	11.105
49.400002	11.915
50.000000	12.468
50.799999	13.619
51.500000	14.199
52.200001	14.910
53.000000	18.101
53.799999	21.737
54.500000	23.548
55.200001	24.292
56.000000	24.688
57.000000	24.807
58.000000	23.859
59.000000	23.111
60.000000	22.192
60.799999	19.981
61.500000	17.048
62.200001	14.543
63.000000	14.593
64.000000	16.911
65.000000	17.373
66.000000	15.071
67.000000	10.376
68.000000	6.605
69.000000	7.712
70.000000	9.652
71.000000	11.367
72.000000	12.585
73.000000	12.198
74.000000	11.206
75.000000	12.311
76.199997	14.341
77.500000	14.932
78.800003	15.018
80.000000	16.354
81.199997	18.241
82.500000	17.705
83.800003	13.698
85.000000	8.626
86.199997	6.300
87.500000	5.162
88.500000	3.246
90.000000	3.020
91.199997	7.270
92.500000	11.910
93.800003	14.605
95.000000	14.919
96.199997	13.672
97.500000	11.152
98.800003	7.812
100.000000	6.496
101.500000	8.253
103.000000	9.241
104.400002	9.988
106.000000	12.180
107.500000	15.475
109.000000	18.299
110.599998	18.750
112.000000	17.314
113.800003	15.641
115.000000	15.780
117.199997	17.157
118.000000	17.489
120.599998	17.781
122.000000	17.161
124.099998	16.954
125.000000	17.423
126.500000	17.870
128.000000	16.776
131.500000	13.389
132.000000	13.405
134.000000	13.768
136.000000	13.107
138.000000	10.276
140.000000	5.812
143.000000	1.413
145.000000	1.088
147.500000	0.608
150.000000	-0.441
152.500000	0.538
155.000000	2.718
157.500000	2.862
160.000000	1.426
162.500000	1.242
165.000000	2.372
167.500000	4.461
170.000000	5.833
172.500000	5.093
175.000000	3.885
177.500000	2.891
180.000000	2.451
182.500000	2.532
185.000000	2.273
187.500000	3.171
190.000000	4.866
192.500000	7.247
195.000000	9.761
197.500000	10.718
200.000000	10.024
203.000000	7.789
206.000000	4.341
209.000000	1.825
212.000000	2.068
214.000000	2.746
218.000000	5.793
220.000000	8.032
224.000000	11.701
227.000000	13.794
230.000000	16.427
233.000000	18.407
236.000000	19.605
240.000000	21.559
243.000000	21.986
247.000000	21.054
250.000000	20.483
254.000000	21.616
258.000000	23.667
262.000000	23.443
265.000000	22.186
269.000000	21.416
272.000000	20.578
276.000000	19.117
280.000000	18.545
285.000000	17.889
290.000000	16.840
295.000000	15.028
300.000000	11.870
304.000000	9.639
307.000000	8.003
311.000000	8.011
315.000000	11.854
320.000000	16.529
325.000000	18.472
330.000000	17.677
335.000000	16.273
340.000000	14.976
345.000000	15.132
350.000000	15.796
355.000000	15.918
360.000000	17.043
365.000000	19.080
370.000000	20.038
375.000000	20.611
382.000000	22.587
387.000000	22.937
395.000000	19.883
400.000000	18.403
406.000000	19.813
412.000000	21.349
418.000000	20.310
425.000000	17.069
431.000000	14.495
437.000000	12.954
444.000000	11.536
450.000000	10.508
455.000000	10.593
462.000000	10.951
468.000000	10.642
475.000000	9.739
482.000000	9.341
487.000000	9.811
494.000000	11.214
500.000000	12.964
508.000000	14.193
515.000000	13.688
522.000000	12.875
530.000000	13.267
538.000000	15.001
545.000000	15.946
552.000000	15.993
560.000000	16.619
570.000000	18.469
580.000000	19.872
590.000000	18.625
600.000000	15.210
608.000000	14.321
615.000000	15.001
622.000000	15.401
630.000000	14.952
640.000000	14.093
650.000000	15.405
660.000000	17.145
670.000000	16.716
680.000000	14.129
690.000000	12.771
700.000000	13.433
710.000000	13.564
720.000000	12.764
730.000000	11.892
740.000000	11.022
750.000000	11.179
762.000000	12.433
775.000000	13.283
788.000000	13.009
800.000000	13.242
812.000000	14.354
825.000000	14.726
838.000000	13.270
850.000000	11.968
862.000000	12.206
875.000000	11.832
885.000000	11.613
900.000000	12.730
912.000000	13.201
925.000000	12.554
938.000000	11.121
950.000000	9.371
962.000000	7.991
975.000000	8.382
988.000000	9.517
1000.000000	9.985
1015.000000	9.916
1030.000000	9.518
1044.000000	9.242
1060.000000	9.618
1075.000000	9.929
1090.000000	10.586
1106.000000	10.787
1120.000000	10.208
1138.000000	10.075
1150.000000	9.935
1172.000000	8.820
1180.000000	8.351
1206.000000	7.450
1220.000000	7.650
1241.000000	8.046
1250.000000	8.154
1265.000000	8.591
1280.000000	9.482
1315.000000	11.624
1320.000000	11.784
1340.000000	12.136
1360.000000	12.124
1380.000000	12.814
1400.000000	13.359
1430.000000	11.993
1450.000000	11.116
1475.000000	9.552
1500.000000	7.879
1525.000000	6.875
1550.000000	6.652
1575.000000	7.154
1600.000000	8.227
1625.000000	8.123
1650.000000	6.427
1675.000000	4.568
1700.000000	2.556
1725.000000	1.212
1750.000000	1.460
1775.000000	1.032
1800.000000	0.087
1825.000000	-0.632
1850.000000	-0.663
1875.000000	-0.463
1900.000000	-0.470
1925.000000	0.264
1950.000000	1.609
1975.000000	3.280
2000.000000	5.305
2030.000000	6.678
2060.000000	6.397
2090.000000	5.888
2120.000000	6.380
2140.000000	7.023
2180.000000	7.664
2200.000000	7.466
2240.000000	8.538
2270.000000	10.158
2300.000000	10.962
2330.000000	11.008
2360.000000	10.438
2400.000000	8.418
2430.000000	6.999
2470.000000	6.425
2500.000000	6.645
2540.000000	6.274
2580.000000	5.329
2620.000000	5.462
2650.000000	5.296
2690.000000	5.681
2720.000000	6.235
2760.000000	5.970
2800.000000	4.919
2850.000000	3.318
2900.000000	4.365
2950.000000	4.722
3000.000000	4.721
3040.000000	4.568
3070.000000	4.074
3110.000000	3.826
3150.000000	3.070
3200.000000	1.984
3250.000000	1.264
3300.000000	1.162
3350.000000	2.046
3400.000000	3.041
3450.000000	4.187
3500.000000	3.705
3550.000000	2.959
3600.000000	3.218
3650.000000	3.552
3700.000000	3.606
3750.000000	4.263
3820.000000	4.080
3870.000000	4.446
3950.000000	5.490
4000.000000	6.830
4060.000000	8.121
4120.000000	9.248
4180.000000	9.451
4250.000000	8.653
4310.000000	7.860
4370.000000	7.678
4440.000000	7.351
4500.000000	7.216
4550.000000	7.183
4620.000000	6.967
4680.000000	6.759
4750.000000	7.038
4820.000000	7.194
4870.000000	7.273
4940.000000	6.881
5000.000000	6.367
5080.000000	5.664
5150.000000	5.425
5220.000000	5.341
5300.000000	5.413
5380.000000	6.315
5450.000000	7.138
5520.000000	6.883
5600.000000	6.623
5700.000000	7.489
5800.000000	9.123
5900.000000	9.787
6000.000000	9.401
6080.000000	8.796
6150.000000	8.021
6220.000000	6.964
6300.000000	5.829
6400.000000	6.007
6500.000000	6.668
6600.000000	6.652
6700.000000	7.119
6800.000000	7.163
6900.000000	6.925
7000.000000	6.425
7100.000000	5.318
7200.000000	4.734
7300.000000	5.107
7400.000000	4.954
7500.000000	4.410
7620.000000	3.799
7750.000000	1.820
7880.000000	-0.091
8000.000000	-1.590
8120.000000	-2.494
8250.000000	-3.086
8380.000000	-3.306
8500.000000	-3.614
8620.000000	-3.722
8750.000000	-3.706
8850.000000	-3.748
9000.000000	-3.215
9120.000000	-2.936
9250.000000	-2.905
9380.000000	-3.015
9500.000000	-3.191
9620.000000	-3.242
9750.000000	-3.228
9880.000000	-3.248
10000.000000	-2.951
10150.000000	-2.925
10300.000000	-3.021
10440.000000	-2.973
10600.000000	-3.295
10750.000000	-3.612
10900.000000	-3.807
11060.000000	-3.674
11200.000000	-3.547
11380.000000	-3.440
11500.000000	-3.460
11720.000000	-3.370
11800.000000	-3.427
12060.000000	-3.224
12200.000000	-2.837
12410.000000	-1.968
12500.000000	-1.744
12650.000000	-1.732
12800.000000	-2.001
13150.000000	-0.898
13200.000000	-0.519
13400.000000	0.932
13600.000000	0.871
13800.000000	-0.300
14000.000000	-0.995
14300.000000	-0.642
14500.000000	-0.736
14750.000000	-1.884
15000.000000	-2.984
15250.000000	-3.458
15500.000000	-3.669
15750.000000	-3.630
16000.000000	-3.823
16250.000000	-3.945
16500.000000	-3.664
16750.000000	-3.168
17000.000000	-2.537
17250.000000	-2.157
17500.000000	-1.897
17750.000000	-1.705
18000.000000	-1.331
18250.000000	-0.643
18500.000000	0.162
18750.000000	0.888
19000.000000	1.659
19250.000000	2.314
19500.000000	2.760
19750.000000	2.988
20000.000000	2.861
