* Measurement data measured by REW V5.40 beta 105
* Source: Microphone (3- USB Audio Device), MICROPHONE (Master Volume), L, volume: 0.250
* Format: 65536-point spectrum using Hann window and no averaging 
* Dated: Nov 14, 2025, 4:42:03 PM
* REW Settings:
*  C-weighting compensation: Off
*  Target level: 75.0 dB
* Note: ; 65536-point spectrum using Hann window and no averaging  Input RMS 47.73 dB 46.5 dB C, 46.4 dB A 47.7 dB 22 - 22k UNW 
* Measurement: SoundPEATS H3 ANC
* Smoothing: 1/24 octave
* Frequency Step: 1/48 octave
* Start Frequency: 20.000 Hz
*
* Freq(Hz)	SPL(dB)
20.000000	15.205
20.299999	14.548
20.600000	12.852
20.900000	11.661
21.200001	11.585
21.400000	11.525
21.799999	11.488
22.000000	11.461
22.400000	10.318
22.700001	7.812
23.000000	5.889
23.299999	4.421
23.600000	4.322
24.000000	7.520
24.299999	9.588
24.700001	10.719
25.000000	10.986
25.400000	10.627
25.799999	9.482
26.200001	7.509
26.500000	5.134
26.900000	1.572
27.200001	-0.687
27.600000	-2.071
28.000000	1.330
28.500000	5.290
29.000000	7.451
29.500000	9.448
30.000000	11.485
30.400000	12.676
30.700001	13.117
31.100000	12.903
31.500000	11.715
32.000000	8.925
32.500000	6.541
33.000000	5.704
33.500000	5.825
34.000000	4.972
34.500000	3.384
35.000000	1.649
35.500000	0.793
36.000000	1.850
36.500000	3.767
37.000000	5.187
37.500000	5.230
38.200001	3.062
38.700001	1.965
39.500000	4.175
40.000000	6.037
40.599998	6.865
41.200001	6.589
41.799999	6.444
42.500000	7.246
43.099998	7.908
43.700001	8.632
44.400002	10.165
45.000000	11.374
45.500000	11.707
46.200001	10.668
46.799999	8.350
47.500000	8.200
48.200001	11.873
48.700001	14.292
49.400002	15.766
50.000000	15.694
50.799999	14.707
51.500000	15.312
52.200001	18.461
53.000000	22.289
53.799999	24.100
54.500000	24.024
55.200001	23.180
56.000000	23.339
57.000000	24.573
58.000000	23.480
59.000000	20.309
60.000000	18.646
60.799999	18.953
61.500000	19.155
62.200001	18.736
63.000000	17.394
64.000000	14.884
65.000000	12.063
66.000000	12.650
67.000000	16.485
68.000000	18.034
69.000000	16.556
70.000000	13.171
71.000000	11.809
72.000000	12.207
73.000000	11.346
74.000000	9.025
75.000000	7.206
76.199997	8.833
77.500000	12.696
78.800003	17.278
80.000000	19.698
81.199997	19.534
82.500000	17.317
83.800003	14.357
85.000000	11.688
86.199997	11.219
87.500000	13.150
88.500000	13.930
90.000000	13.802
91.199997	14.052
92.500000	14.935
93.800003	15.334
95.000000	13.880
96.199997	10.483
97.500000	5.404
98.800003	2.176
100.000000	2.509
101.500000	3.277
103.000000	4.055
104.400002	3.435
106.000000	1.447
107.500000	1.671
109.000000	2.598
110.599998	3.204
112.000000	5.540
113.800003	8.679
115.000000	9.757
117.199997	10.426
118.000000	10.503
120.599998	12.138
122.000000	13.435
124.099998	16.308
125.000000	17.822
126.500000	19.449
128.000000	19.236
131.500000	20.296
132.000000	20.736
134.000000	21.283
136.000000	20.709
138.000000	21.022
140.000000	20.469
143.000000	17.840
145.000000	18.042
147.500000	17.306
150.000000	15.323
152.500000	12.797
155.000000	9.112
157.500000	6.714
160.000000	6.032
162.500000	6.775
165.000000	10.151
167.500000	11.235
170.000000	9.739
172.500000	8.771
175.000000	7.826
177.500000	6.165
180.000000	5.809
182.500000	6.404
185.000000	6.295
187.500000	6.207
190.000000	7.741
192.500000	9.710
195.000000	10.368
197.500000	10.012
200.000000	8.420
203.000000	4.594
206.000000	1.485
209.000000	2.794
212.000000	6.610
214.000000	10.059
218.000000	16.238
220.000000	18.135
224.000000	20.517
227.000000	21.294
230.000000	21.411
233.000000	22.260
236.000000	23.214
240.000000	23.229
243.000000	21.956
247.000000	20.258
250.000000	18.669
254.000000	15.693
258.000000	14.110
262.000000	12.591
265.000000	10.844
269.000000	9.621
272.000000	8.697
276.000000	6.402
280.000000	4.249
285.000000	5.019
290.000000	5.819
295.000000	5.544
300.000000	6.782
304.000000	8.082
307.000000	8.412
311.000000	8.300
315.000000	8.397
320.000000	9.564
325.000000	11.272
330.000000	11.132
335.000000	8.150
340.000000	4.992
345.000000	3.917
350.000000	3.815
355.000000	2.703
360.000000	2.706
365.000000	5.287
370.000000	7.620
375.000000	9.822
382.000000	12.787
387.000000	14.473
395.000000	15.486
400.000000	14.425
406.000000	13.551
412.000000	12.600
418.000000	9.753
425.000000	5.924
431.000000	4.453
437.000000	5.131
444.000000	5.972
450.000000	7.238
455.000000	9.497
462.000000	12.649
468.000000	14.447
475.000000	15.503
482.000000	15.418
487.000000	14.968
494.000000	13.295
500.000000	11.295
508.000000	8.766
515.000000	6.443
522.000000	6.703
530.000000	8.039
538.000000	9.133
545.000000	10.360
552.000000	11.306
560.000000	12.228
570.000000	13.374
580.000000	13.201
590.000000	10.900
600.000000	8.673
608.000000	7.800
615.000000	6.776
622.000000	5.910
630.000000	4.938
640.000000	4.352
650.000000	3.902
660.000000	3.529
670.000000	2.450
680.000000	1.183
690.000000	1.311
700.000000	3.644
710.000000	6.748
720.000000	7.128
730.000000	5.114
740.000000	2.560
750.000000	0.319
762.000000	-0.351
775.000000	0.432
788.000000	0.956
800.000000	2.601
812.000000	5.281
825.000000	6.813
838.000000	5.539
850.000000	3.143
862.000000	2.275
875.000000	4.229
885.000000	5.652
900.000000	5.501
912.000000	3.574
925.000000	2.633
938.000000	2.582
950.000000	1.809
962.000000	0.919
975.000000	1.239
988.000000	2.293
1000.000000	3.222
1015.000000	3.513
1030.000000	3.656
1044.000000	3.820
1060.000000	3.542
1075.000000	4.036
1090.000000	5.564
1106.000000	6.789
1120.000000	7.400
1138.000000	7.443
1150.000000	6.966
1172.000000	7.114
1180.000000	7.247
1206.000000	7.172
1220.000000	7.212
1241.000000	7.389
1250.000000	7.906
1265.000000	9.034
1280.000000	9.882
1315.000000	12.305
1320.000000	12.425
1340.000000	12.624
1360.000000	13.372
1380.000000	13.902
1400.000000	14.123
1430.000000	13.552
1450.000000	12.998
1475.000000	12.981
1500.000000	13.677
1525.000000	14.367
1550.000000	14.677
1575.000000	15.166
1600.000000	15.489
1625.000000	14.869
1650.000000	13.643
1675.000000	11.259
1700.000000	9.120
1725.000000	8.346
1750.000000	8.009
1775.000000	7.435
1800.000000	6.736
1825.000000	6.581
1850.000000	6.387
1875.000000	6.872
1900.000000	7.614
1925.000000	7.442
1950.000000	6.663
1975.000000	7.031
2000.000000	7.999
2030.000000	8.659
2060.000000	8.635
2090.000000	8.863
2120.000000	10.113
2140.000000	10.873
2180.000000	11.893
2200.000000	11.985
2240.000000	11.296
2270.000000	11.274
2300.000000	11.153
2330.000000	10.728
2360.000000	10.651
2400.000000	11.119
2430.000000	10.296
2470.000000	8.148
2500.000000	7.487
2540.000000	6.690
2580.000000	5.405
2620.000000	5.798
2650.000000	5.840
2690.000000	5.960
2720.000000	6.518
2760.000000	6.932
2800.000000	7.660
2850.000000	7.629
2900.000000	6.656
2950.000000	6.977
3000.000000	6.740
3040.000000	6.705
3070.000000	6.835
3110.000000	6.977
3150.000000	6.787
3200.000000	6.670
3250.000000	6.348
3300.000000	5.331
3350.000000	4.645
3400.000000	5.820
3450.000000	7.153
3500.000000	8.015
3550.000000	9.102
3600.000000	9.327
3650.000000	8.454
3700.000000	6.734
3750.000000	4.973
3820.000000	3.896
3870.000000	3.408
3950.000000	1.856
4000.000000	2.973
4060.000000	4.994
4120.000000	6.582
4180.000000	7.138
4250.000000	6.688
4310.000000	5.631
4370.000000	4.198
4440.000000	2.839
4500.000000	2.265
4550.000000	2.197
4620.000000	1.529
4680.000000	0.760
4750.000000	-0.067
4820.000000	-0.744
4870.000000	-0.853
4940.000000	-0.815
5000.000000	-0.606
5080.000000	-1.086
5150.000000	-1.935
5220.000000	-2.169
5300.000000	-1.763
5380.000000	-1.395
5450.000000	-1.695
5520.000000	-1.925
5600.000000	-2.044
5700.000000	-1.592
5800.000000	-0.656
5900.000000	-0.281
6000.000000	-0.038
6080.000000	-0.029
6150.000000	-0.288
6220.000000	-0.377
6300.000000	-0.206
6400.000000	0.416
6500.000000	1.600
6600.000000	2.930
6700.000000	3.742
6800.000000	2.796
6900.000000	0.838
7000.000000	-0.327
7100.000000	-1.229
7200.000000	-0.957
7300.000000	0.873
7400.000000	1.783
7500.000000	1.734
7620.000000	2.005
7750.000000	1.360
7880.000000	0.005
8000.000000	-0.225
8120.000000	0.139
8250.000000	-0.480
8380.000000	-1.746
8500.000000	-2.800
8620.000000	-3.081
8750.000000	-3.327
8850.000000	-3.814
9000.000000	-3.601
9120.000000	-3.116
9250.000000	-3.022
9380.000000	-3.183
9500.000000	-3.617
9620.000000	-3.683
9750.000000	-3.455
9880.000000	-3.654
10000.000000	-3.978
10150.000000	-4.225
10300.000000	-4.043
10440.000000	-3.989
10600.000000	-4.038
10750.000000	-3.986
10900.000000	-4.199
11060.000000	-4.022
11200.000000	-3.848
11380.000000	-3.602
11500.000000	-3.594
11720.000000	-3.585
11800.000000	-3.646
12060.000000	-3.699
12200.000000	-3.864
12410.000000	-3.900
12500.000000	-3.827
12650.000000	-3.539
12800.000000	-3.408
13150.000000	-3.743
13200.000000	-3.757
13400.000000	-3.224
13600.000000	-1.569
13800.000000	0.310
14000.000000	1.221
14300.000000	1.672
14500.000000	1.802
14750.000000	1.720
15000.000000	1.936
15250.000000	2.359
15500.000000	2.683
15750.000000	2.142
16000.000000	0.235
16250.000000	-2.468
16500.000000	-3.609
16750.000000	-3.492
17000.000000	-3.224
17250.000000	-2.784
17500.000000	-2.210
17750.000000	-1.718
18000.000000	-1.232
18250.000000	-0.603
18500.000000	0.137
18750.000000	0.793
19000.000000	1.498
19250.000000	2.303
19500.000000	2.917
19750.000000	3.082
20000.000000	2.923
